,1525930597.011947, /muse/eeg, 837.692321777, 875.567749023, 852.197814941, 864.285705566
0,1525930597.011964, /muse/eeg,837.2893676760001,874.3589477539999,853.003662109,863.8828125
1,1525930597.0119731, /muse/eeg,836.886474609,873.553100586,854.615356445,834.871765137
2,1525930597.011983, /muse/eeg,838.498168945,876.373596191,855.824157715,823.9926757810001
3,1525930597.011992, /muse/eeg,830.842468262,875.164855957,857.032958984,847.765563965
4,1525930597.012001, /muse/eeg,826.41027832,875.970703125,854.2124633789999,857.838806152
5,1525930597.0120142, /muse/eeg,817.1428833010001,874.761901855,851.79486084,827.216125488
6,1525930597.012024, /muse/eeg,804.6520385739999,876.776550293,849.377319336,802.234436035
7,1525930597.012032, /muse/eeg,806.666687012,876.776550293,848.974365234,817.5457763669999
8,1525930597.012042, /muse/eeg,801.831481934,874.761901855,844.139221191,829.2307739260001
9,1525930597.012983, /muse/eeg,784.102539062,875.164855957,841.3186645510001,802.637390137
10,1525930597.012995, /muse/eeg,772.417602539,865.897460938,846.9597167969999,764.3589477539999
11,1525930597.0533972, /muse/eeg,779.26739502,865.494506836,843.333312988,772.820495605
12,1525930597.0534348, /muse/eeg,783.296691895,878.79119873,839.304016113,801.4285888669999
13,1525930597.05345, /muse/eeg,755.897460938,877.582397461,836.4835205080001,768.79119873
14,1525930597.053463, /muse/eeg,724.871765137,863.0769042969999,830.842468262,711.9780273439999
15,1525930597.053476, /muse/eeg,726.4835205080001,860.659362793,832.0512695310001,711.1721801760001
16,1525930597.053489, /muse/eeg,726.0805664060001,867.1062011719999,835.274719238,743.406616211
17,1525930597.053501, /muse/eeg,715.6043701169999,870.3296508789999,833.2600708010001,745.421264648
18,1525930597.053514, /muse/eeg,705.53112793,869.523803711,834.0659179689999,706.336975098
19,1525930597.053526, /muse/eeg,703.113525391,861.062255859,844.139221191,691.4285888669999
20,1525930597.053536, /muse/eeg,706.7399291989999,862.67401123,845.750915527,715.6043701169999
21,1525930597.053549, /muse/eeg,720.842468262,867.1062011719999,841.3186645510001,738.168518066
22,1525930597.053561, /muse/eeg,725.274719238,861.465209961,843.73626709,724.0659179689999
23,1525930597.095501, /muse/eeg,718.0219726560001,861.868103027,846.556762695,707.5457763669999
24,1525930597.095559, /muse/eeg,720.439575195,866.3003540039999,846.1538696289999,724.871765137
25,1525930597.095582, /muse/eeg,730.915771484,871.538452148,846.1538696289999,752.67401123
26,1525930597.095613, /muse/eeg,728.498168945,867.509155273,846.9597167969999,737.765563965
27,1525930597.095636, /muse/eeg,727.692321777,865.091552734,845.3479614260001,716.0073242189999
28,1525930597.095659, /muse/eeg,746.630065918,864.688659668,846.556762695,740.9890136719999
29,1525930597.0956821, /muse/eeg,757.912109375,865.091552734,849.780212402,778.05859375
30,1525930597.095715, /muse/eeg,768.79119873,864.688659668,845.750915527,790.9523925780001
31,1525930597.0957382, /muse/eeg,780.073242188,866.703308105,848.5714111330001,776.043945312
32,1525930597.0957608, /muse/eeg,780.879150391,871.538452148,855.824157715,774.835144043
33,1525930597.095784, /muse/eeg,795.384643555,867.912109375,855.0183105469999,823.186828613
34,1525930597.095819, /muse/eeg,816.336975098,867.1062011719999,853.003662109,849.780212402
35,1525930597.13887, /muse/eeg,828.8278198239999,870.73260498,855.824157715,825.2014770510001
36,1525930597.13896, /muse/eeg,835.67767334,873.15020752,857.838806152,824.3956298830001
37,1525930597.139025, /muse/eeg,848.974365234,868.717956543,857.435913086,865.494506836
38,1525930597.13909, /muse/eeg,861.465209961,867.912109375,861.465209961,897.32598877
39,1525930597.139134, /muse/eeg,863.0769042969999,870.73260498,862.2710571289999,876.776550293
40,1525930597.1391768, /muse/eeg,867.509155273,867.912109375,862.67401123,857.435913086
41,1525930597.1392212, /muse/eeg,881.611694336,870.3296508789999,864.688659668,883.626403809
42,1525930597.1392698, /muse/eeg,888.05859375,872.344299316,866.3003540039999,919.084228516
43,1525930597.1393151, /muse/eeg,886.84979248,877.179504395,861.868103027,905.7875366210001
44,1525930597.139372, /muse/eeg,890.879150391,875.567749023,859.0476074219999,875.970703125
45,1525930597.139414, /muse/eeg,898.937744141,869.523803711,861.465209961,895.311340332
46,1525930597.139457, /muse/eeg,895.311340332,874.3589477539999,859.450561523,929.560424805
47,1525930597.181794, /muse/eeg,893.296691895,883.626403809,857.435913086,929.9633789060001
48,1525930597.181821, /muse/eeg,888.461547852,877.582397461,859.0476074219999,894.102539062
49,1525930597.1818368, /muse/eeg,888.05859375,874.3589477539999,862.2710571289999,886.84979248
50,1525930597.1818528, /muse/eeg,895.714294434,873.956054688,863.479858398,922.307678223
51,1525930597.181869, /muse/eeg,893.6996459960001,871.538452148,862.2710571289999,936.813171387
52,1525930597.181884, /muse/eeg,890.073242188,875.164855957,861.868103027,905.7875366210001
53,1525930597.1819, /muse/eeg,885.6410522460001,874.3589477539999,861.868103027,884.029296875
54,1525930597.181915, /muse/eeg,890.476196289,871.135559082,860.256408691,906.996337891
55,1525930597.181931, /muse/eeg,892.8937988280001,874.761901855,857.838806152,933.9926757810001
56,1525930597.181947, /muse/eeg,890.476196289,875.164855957,857.032958984,906.190490723
57,1525930597.181969, /muse/eeg,886.84979248,877.985351562,856.227111816,878.388305664
58,1525930597.181984, /muse/eeg,881.611694336,877.985351562,855.0183105469999,896.1171875
59,1525930597.2426288, /muse/eeg,881.611694336,875.567749023,853.809509277,913.443237305
60,1525930597.2426481, /muse/eeg,880.402954102,873.15020752,858.2417602539999,901.355285645
61,1525930597.243353, /muse/eeg,875.164855957,871.538452148,861.868103027,870.3296508789999
62,1525930597.243367, /muse/eeg,871.94140625,875.970703125,858.644714355,872.344299316
63,1525930597.243377, /muse/eeg,875.567749023,877.582397461,858.2417602539999,901.355285645
64,1525930597.243387, /muse/eeg,878.388305664,873.15020752,860.256408691,903.369934082
65,1525930597.243396, /muse/eeg,866.703308105,871.135559082,859.85345459,871.135559082
66,1525930597.243406, /muse/eeg,861.062255859,873.15020752,857.032958984,863.0769042969999
67,1525930597.243416, /muse/eeg,869.926757812,876.373596191,856.630065918,895.714294434
68,1525930597.243426, /muse/eeg,869.926757812,874.3589477539999,855.824157715,906.996337891
69,1525930597.2434359, /muse/eeg,861.465209961,870.73260498,856.630065918,872.344299316
70,1525930597.243446, /muse/eeg,859.85345459,876.373596191,858.2417602539999,850.9890136719999
71,1525930597.2840009, /muse/eeg,865.091552734,879.597045898,856.630065918,879.194152832
72,1525930597.284023, /muse/eeg,873.553100586,875.970703125,859.450561523,911.831481934
73,1525930597.2840369, /muse/eeg,874.761901855,874.761901855,858.2417602539999,889.6703491210001
74,1525930597.284052, /muse/eeg,872.344299316,875.970703125,853.003662109,857.435913086
75,1525930597.284066, /muse/eeg,873.15020752,874.3589477539999,852.197814941,874.3589477539999
76,1525930597.2840788, /muse/eeg,872.747253418,871.538452148,854.2124633789999,901.7582397460001
77,1525930597.284092, /muse/eeg,869.926757812,872.747253418,854.2124633789999,891.282043457
78,1525930597.284105, /muse/eeg,859.85345459,875.567749023,851.391967773,867.509155273
79,1525930597.284118, /muse/eeg,859.85345459,875.567749023,853.003662109,869.926757812
80,1525930597.284133, /muse/eeg,871.94140625,878.388305664,852.6007080080001,897.7289428710001
81,1525930597.284149, /muse/eeg,877.179504395,879.597045898,853.003662109,904.175842285
82,1525930597.2841618, /muse/eeg,863.0769042969999,877.582397461,855.824157715,867.509155273
83,1525930597.3452199, /muse/eeg,860.256408691,875.164855957,854.2124633789999,857.435913086
84,1525930597.345258, /muse/eeg,869.926757812,877.179504395,853.809509277,884.835144043
85,1525930597.345272, /muse/eeg,860.659362793,879.597045898,853.406616211,894.505493164
86,1525930597.345285, /muse/eeg,859.0476074219999,877.582397461,855.0183105469999,865.091552734
87,1525930597.346441, /muse/eeg,855.0183105469999,871.538452148,856.630065918,844.945068359
88,1525930597.346467, /muse/eeg,852.6007080080001,871.135559082,853.406616211,865.091552734
89,1525930597.346484, /muse/eeg,853.809509277,876.776550293,854.2124633789999,886.84979248
90,1525930597.3465, /muse/eeg,852.6007080080001,876.373596191,855.824157715,867.509155273
91,1525930597.346517, /muse/eeg,852.197814941,873.15020752,851.391967773,834.871765137
92,1525930597.346536, /muse/eeg,852.6007080080001,873.15020752,850.1831665039999,847.362609863
93,1525930597.3465571, /muse/eeg,854.2124633789999,879.194152832,849.377319336,881.20880127
94,1525930597.346573, /muse/eeg,846.9597167969999,880.0,846.9597167969999,881.20880127
95,1525930597.407921, /muse/eeg,842.1245117189999,875.567749023,849.780212402,848.974365234
96,1525930597.407949, /muse/eeg,848.168518066,876.776550293,852.197814941,846.556762695
97,1525930597.407959, /muse/eeg,852.6007080080001,877.582397461,850.1831665039999,875.970703125
98,1525930597.407969, /muse/eeg,852.6007080080001,874.3589477539999,846.556762695,886.84979248
99,1525930597.407979, /muse/eeg,851.391967773,872.747253418,848.974365234,857.435913086
100,1525930597.407989, /muse/eeg,854.2124633789999,870.73260498,850.1831665039999,842.1245117189999
101,1525930597.407999, /muse/eeg,867.509155273,871.94140625,847.765563965,866.703308105
102,1525930597.408009, /muse/eeg,859.85345459,876.776550293,851.79486084,890.073242188
103,1525930597.4080188, /muse/eeg,843.73626709,872.747253418,853.809509277,865.897460938
104,1525930597.4080288, /muse/eeg,846.556762695,871.538452148,849.780212402,832.0512695310001
105,1525930597.408039, /muse/eeg,851.391967773,879.597045898,849.377319336,850.1831665039999
106,1525930597.408049, /muse/eeg,857.838806152,881.611694336,850.58605957,883.626403809
107,1525930597.428318, /muse/eeg,857.032958984,882.014648438,848.974365234,865.897460938
108,1525930597.428349, /muse/eeg,848.5714111330001,883.223449707,846.556762695,823.186828613
109,1525930597.428358, /muse/eeg,849.780212402,881.20880127,848.168518066,832.8571166989999
110,1525930597.428366, /muse/eeg,853.003662109,877.582397461,850.9890136719999,871.538452148
111,1525930597.428375, /muse/eeg,847.765563965,874.761901855,854.2124633789999,871.135559082
112,1525930597.428383, /muse/eeg,845.750915527,875.164855957,859.0476074219999,835.67767334
113,1525930597.429129, /muse/eeg,838.9011230469999,875.164855957,857.838806152,828.8278198239999
114,1525930597.429146, /muse/eeg,839.706970215,873.15020752,856.227111816,857.838806152
115,1525930597.429156, /muse/eeg,840.915771484,869.523803711,856.227111816,871.538452148
116,1525930597.429166, /muse/eeg,830.0366210939999,870.73260498,859.450561523,838.0952148439999
117,1525930597.429179, /muse/eeg,825.6043701169999,871.94140625,858.644714355,819.9633789060001
118,1525930597.429189, /muse/eeg,838.0952148439999,868.315002441,853.406616211,848.5714111330001
119,1525930597.471477, /muse/eeg,842.52746582,867.912109375,853.003662109,863.479858398
120,1525930597.471496, /muse/eeg,824.3956298830001,874.761901855,852.197814941,837.2893676760001
121,1525930597.471506, /muse/eeg,823.9926757810001,874.761901855,849.377319336,812.7106323239999
122,1525930597.471515, /muse/eeg,840.5128173830001,871.94140625,848.5714111330001,830.439575195
123,1525930597.471525, /muse/eeg,838.498168945,872.344299316,849.780212402,860.659362793
124,1525930597.471535, /muse/eeg,833.663024902,871.94140625,851.391967773,849.780212402
125,1525930597.471544, /muse/eeg,835.67767334,872.344299316,851.79486084,818.754577637
126,1525930597.4715538, /muse/eeg,837.2893676760001,870.73260498,851.79486084,826.813171387
127,1525930597.471564, /muse/eeg,836.0805664060001,869.120849609,852.6007080080001,857.838806152
128,1525930597.471574, /muse/eeg,832.8571166989999,866.3003540039999,853.809509277,869.926757812
129,1525930597.471584, /muse/eeg,846.1538696289999,870.73260498,853.809509277,844.139221191
130,1525930597.4715939, /muse/eeg,847.765563965,881.20880127,848.5714111330001,816.336975098
131,1525930597.513187, /muse/eeg,833.2600708010001,882.014648438,846.556762695,834.46887207
132,1525930597.513218, /muse/eeg,830.842468262,881.20880127,845.3479614260001,846.1538696289999
133,1525930597.513228, /muse/eeg,821.5750732419999,878.388305664,844.945068359,818.754577637
134,1525930597.513237, /muse/eeg,818.351623535,875.970703125,844.139221191,807.0695800780001
135,1525930597.513253, /muse/eeg,833.663024902,874.761901855,846.1538696289999,834.46887207
136,1525930597.513263, /muse/eeg,823.58972168,873.956054688,850.9890136719999,855.421264648
137,1525930597.513273, /muse/eeg,806.26373291,870.3296508789999,848.5714111330001,840.1098632810001
138,1525930597.513283, /muse/eeg,817.1428833010001,864.688659668,846.9597167969999,811.501831055
139,1525930597.5141711, /muse/eeg,827.619018555,869.926757812,849.780212402,831.648376465
140,1525930597.514201, /muse/eeg,826.813171387,874.761901855,852.197814941,867.509155273
141,1525930597.5142179, /muse/eeg,831.648376465,871.538452148,850.58605957,855.0183105469999
142,1525930597.514233, /muse/eeg,841.721618652,872.747253418,850.9890136719999,829.633728027
143,1525930597.5555189, /muse/eeg,845.3479614260001,876.373596191,853.809509277,839.304016113
144,1525930597.555546, /muse/eeg,842.9304199219999,877.582397461,850.58605957,869.120849609
145,1525930597.555556, /muse/eeg,847.765563965,879.597045898,852.197814941,869.523803711
146,1525930597.555566, /muse/eeg,848.168518066,880.0,854.615356445,836.886474609
147,1525930597.555575, /muse/eeg,835.67767334,877.179504395,850.9890136719999,829.2307739260001
148,1525930597.555584, /muse/eeg,836.0805664060001,875.567749023,854.615356445,858.644714355
149,1525930597.555594, /muse/eeg,848.974365234,872.344299316,856.227111816,880.805847168
150,1525930597.555603, /muse/eeg,841.721618652,872.747253418,852.197814941,853.809509277
151,1525930597.555613, /muse/eeg,832.4542236330001,875.567749023,855.0183105469999,821.9780273439999
152,1525930597.555623, /muse/eeg,834.46887207,872.747253418,854.2124633789999,846.1538696289999
153,1525930597.555633, /muse/eeg,838.498168945,875.970703125,851.391967773,874.761901855
154,1525930597.555643, /muse/eeg,844.5421142580001,875.567749023,855.824157715,858.2417602539999
155,1525930597.616958, /muse/eeg,837.2893676760001,873.15020752,858.2417602539999,832.8571166989999
156,1525930597.617, /muse/eeg,834.0659179689999,875.164855957,852.6007080080001,843.333312988
157,1525930597.6170151, /muse/eeg,838.498168945,875.164855957,853.003662109,870.73260498
158,1525930597.617038, /muse/eeg,826.0073242189999,875.567749023,853.406616211,861.465209961
159,1525930597.617054, /muse/eeg,824.7985229489999,875.164855957,849.780212402,827.619018555
160,1525930597.6170712, /muse/eeg,828.8278198239999,870.3296508789999,852.197814941,831.245422363
161,1525930597.617093, /muse/eeg,829.633728027,869.523803711,852.197814941,860.659362793
162,1525930597.617116, /muse/eeg,834.871765137,874.3589477539999,849.377319336,863.8828125
163,1525930597.617133, /muse/eeg,828.0219726560001,873.15020752,850.9890136719999,823.58972168
164,1525930597.617149, /muse/eeg,823.186828613,870.73260498,849.377319336,812.307678223
165,1525930597.618424, /muse/eeg,828.0219726560001,875.567749023,844.945068359,847.362609863
166,1525930597.618448, /muse/eeg,831.245422363,877.985351562,846.1538696289999,863.479858398
167,1525930597.680799, /muse/eeg,830.439575195,877.179504395,848.974365234,838.9011230469999
168,1525930597.6808288, /muse/eeg,829.2307739260001,876.776550293,850.1831665039999,814.32232666
169,1525930597.680839, /muse/eeg,830.842468262,877.179504395,851.391967773,839.706970215
170,1525930597.6808481, /muse/eeg,835.67767334,878.388305664,848.5714111330001,870.3296508789999
171,1525930597.680857, /muse/eeg,836.886474609,875.567749023,846.9597167969999,851.391967773
172,1525930597.680872, /muse/eeg,832.4542236330001,869.120849609,848.5714111330001,828.0219726560001
173,1525930597.680882, /muse/eeg,832.8571166989999,869.926757812,850.58605957,840.915771484
174,1525930597.680892, /muse/eeg,835.274719238,874.761901855,850.9890136719999,859.450561523
175,1525930597.680902, /muse/eeg,832.4542236330001,869.926757812,848.5714111330001,852.6007080080001
176,1525930597.680912, /muse/eeg,833.2600708010001,871.135559082,846.9597167969999,828.8278198239999
177,1525930597.680922, /muse/eeg,836.4835205080001,875.567749023,848.168518066,826.813171387
178,1525930597.680932, /muse/eeg,838.0952148439999,874.761901855,849.780212402,853.809509277
179,1525930597.7220259, /muse/eeg,838.9011230469999,872.747253418,850.9890136719999,864.688659668
180,1525930597.72213, /muse/eeg,835.67767334,873.553100586,849.780212402,832.8571166989999
181,1525930597.722188, /muse/eeg,835.67767334,874.3589477539999,850.58605957,816.7399291989999
182,1525930597.7222528, /muse/eeg,835.67767334,877.582397461,852.197814941,846.556762695
183,1525930597.7223, /muse/eeg,828.8278198239999,877.582397461,852.197814941,865.091552734
184,1525930597.72234, /muse/eeg,828.0219726560001,871.135559082,854.2124633789999,840.5128173830001
185,1525930597.722393, /muse/eeg,830.842468262,872.344299316,856.227111816,819.157531738
186,1525930597.722553, /muse/eeg,832.8571166989999,876.373596191,855.421264648,836.0805664060001
187,1525930597.7226071, /muse/eeg,831.245422363,870.73260498,853.406616211,865.091552734
188,1525930597.7226481, /muse/eeg,825.2014770510001,866.3003540039999,857.838806152,850.1831665039999
189,1525930597.7226892, /muse/eeg,823.58972168,873.553100586,857.435913086,814.32232666
190,1525930597.7227302, /muse/eeg,825.6043701169999,877.985351562,849.377319336,828.4249267580001
191,1525930597.765624, /muse/eeg,829.2307739260001,878.79119873,849.377319336,855.421264648
192,1525930597.765655, /muse/eeg,828.4249267580001,878.79119873,850.58605957,848.974365234
193,1525930597.765665, /muse/eeg,823.58972168,876.776550293,848.168518066,821.5750732419999
194,1525930597.765674, /muse/eeg,834.871765137,874.3589477539999,848.974365234,816.7399291989999
195,1525930597.765683, /muse/eeg,835.274719238,872.747253418,850.58605957,846.556762695
196,1525930597.765696, /muse/eeg,827.216125488,871.538452148,849.780212402,859.450561523
197,1525930597.765709, /muse/eeg,828.0219726560001,875.567749023,848.168518066,834.0659179689999
198,1525930597.765719, /muse/eeg,833.663024902,880.0,846.9597167969999,818.351623535
199,1525930597.7657301, /muse/eeg,842.52746582,880.0,847.362609863,844.945068359
200,1525930597.7657402, /muse/eeg,844.139221191,880.402954102,852.6007080080001,864.688659668
201,1525930597.765749, /muse/eeg,834.46887207,882.417602539,849.377319336,845.750915527
202,1525930597.76576, /muse/eeg,830.842468262,877.582397461,845.750915527,819.560424805
203,1525930597.806072, /muse/eeg,830.842468262,875.567749023,847.765563965,836.0805664060001
204,1525930597.806103, /muse/eeg,833.663024902,877.179504395,845.3479614260001,866.703308105
205,1525930597.806113, /muse/eeg,832.4542236330001,876.776550293,847.362609863,851.79486084
206,1525930597.806122, /muse/eeg,828.0219726560001,877.179504395,851.79486084,822.783874512
207,1525930597.8061311, /muse/eeg,836.4835205080001,875.164855957,849.780212402,836.0805664060001
208,1525930597.806144, /muse/eeg,844.139221191,873.956054688,848.168518066,874.3589477539999
209,1525930597.806155, /muse/eeg,842.1245117189999,875.970703125,850.58605957,873.553100586
210,1525930597.806165, /muse/eeg,842.52746582,873.956054688,854.2124633789999,839.706970215
211,1525930597.806174, /muse/eeg,845.750915527,873.15020752,854.615356445,837.692321777
212,1525930597.806184, /muse/eeg,846.9597167969999,877.582397461,852.6007080080001,866.3003540039999
213,1525930597.8061938, /muse/eeg,855.0183105469999,878.388305664,857.032958984,878.388305664
214,1525930597.806203, /muse/eeg,854.2124633789999,873.956054688,859.450561523,852.6007080080001
215,1525930597.8474581, /muse/eeg,844.5421142580001,869.120849609,855.824157715,832.8571166989999
216,1525930597.8474882, /muse/eeg,847.765563965,876.776550293,853.809509277,855.421264648
217,1525930597.848424, /muse/eeg,843.73626709,879.194152832,850.58605957,880.805847168
218,1525930597.848445, /muse/eeg,842.1245117189999,875.164855957,853.406616211,857.838806152
219,1525930597.8484561, /muse/eeg,847.362609863,874.3589477539999,850.58605957,824.7985229489999
220,1525930597.848466, /muse/eeg,843.73626709,873.956054688,847.362609863,845.3479614260001
221,1525930597.848476, /muse/eeg,843.333312988,875.970703125,850.1831665039999,886.84979248
222,1525930597.848485, /muse/eeg,842.9304199219999,870.3296508789999,850.9890136719999,882.417602539
223,1525930597.848494, /muse/eeg,834.0659179689999,867.912109375,850.1831665039999,833.663024902
224,1525930597.8485038, /muse/eeg,837.2893676760001,876.776550293,847.765563965,828.8278198239999
225,1525930597.8485131, /muse/eeg,841.721618652,875.970703125,843.73626709,859.450561523
226,1525930597.8485222, /muse/eeg,840.1098632810001,870.3296508789999,845.3479614260001,861.868103027
227,1525930597.888814, /muse/eeg,845.3479614260001,870.73260498,849.780212402,830.439575195
228,1525930597.888832, /muse/eeg,844.5421142580001,872.747253418,849.780212402,824.3956298830001
229,1525930597.888843, /muse/eeg,836.4835205080001,871.538452148,848.5714111330001,853.809509277
230,1525930597.8888528, /muse/eeg,833.2600708010001,867.912109375,849.377319336,867.509155273
231,1525930597.888863, /muse/eeg,830.0366210939999,867.912109375,851.79486084,838.498168945
232,1525930597.888873, /muse/eeg,824.3956298830001,865.494506836,853.809509277,819.560424805
233,1525930597.888884, /muse/eeg,832.8571166989999,865.091552734,855.0183105469999,841.721618652
234,1525930597.8888938, /muse/eeg,836.4835205080001,867.912109375,851.79486084,860.256408691
235,1525930597.8889039, /muse/eeg,825.2014770510001,870.3296508789999,848.5714111330001,848.168518066
236,1525930597.888914, /muse/eeg,816.336975098,868.315002441,854.615356445,820.366271973
237,1525930597.8889241, /muse/eeg,821.1721801760001,865.494506836,857.435913086,829.2307739260001
238,1525930597.888934, /muse/eeg,837.692321777,868.717956543,853.003662109,870.73260498
239,1525930597.951586, /muse/eeg,834.0659179689999,870.73260498,851.79486084,865.091552734
240,1525930597.9516199, /muse/eeg,830.0366210939999,868.315002441,853.809509277,821.1721801760001
241,1525930597.951643, /muse/eeg,832.0512695310001,865.897460938,853.406616211,826.41027832
242,1525930597.951666, /muse/eeg,830.842468262,870.3296508789999,849.377319336,857.838806152
243,1525930597.953145, /muse/eeg,830.439575195,872.747253418,850.58605957,858.644714355
244,1525930597.953194, /muse/eeg,830.0366210939999,866.703308105,850.58605957,833.2600708010001
245,1525930597.9532301, /muse/eeg,842.52746582,864.688659668,847.362609863,824.7985229489999
246,1525930597.953275, /muse/eeg,840.1098632810001,867.912109375,847.765563965,846.9597167969999
247,1525930597.953321, /muse/eeg,834.46887207,874.761901855,844.5421142580001,863.479858398
248,1525930597.953359, /muse/eeg,833.663024902,873.553100586,843.73626709,843.333312988
249,1525930597.953399, /muse/eeg,822.783874512,865.091552734,846.556762695,817.9487304689999
250,1525930597.953423, /muse/eeg,824.3956298830001,865.897460938,848.5714111330001,834.0659179689999
251,1525930597.9953551, /muse/eeg,829.2307739260001,870.73260498,846.556762695,867.509155273
252,1525930597.995442, /muse/eeg,825.2014770510001,866.703308105,848.5714111330001,849.780212402
253,1525930597.995501, /muse/eeg,827.216125488,863.8828125,852.6007080080001,812.7106323239999
254,1525930597.995543, /muse/eeg,826.813171387,868.717956543,846.556762695,822.380981445
255,1525930597.995584, /muse/eeg,825.6043701169999,871.94140625,844.945068359,860.659362793
256,1525930597.995642, /muse/eeg,820.7692260739999,867.1062011719999,850.9890136719999,857.032958984
257,1525930597.995683, /muse/eeg,823.9926757810001,863.8828125,846.1538696289999,820.7692260739999
258,1525930597.995723, /muse/eeg,844.945068359,867.509155273,845.750915527,830.842468262
259,1525930597.995764, /muse/eeg,837.692321777,872.344299316,855.0183105469999,856.227111816
260,1525930597.9958131, /muse/eeg,819.157531738,870.3296508789999,850.1831665039999,845.750915527
261,1525930597.995853, /muse/eeg,815.53112793,867.912109375,849.377319336,809.8901367189999
262,1525930597.995895, /muse/eeg,800.219787598,869.120849609,850.9890136719999,787.7289428710001
263,1525930598.036635, /muse/eeg,784.102539062,865.897460938,843.333312988,805.4578857419999
264,1525930598.036726, /muse/eeg,789.340637207,863.8828125,843.73626709,825.6043701169999
265,1525930598.036769, /muse/eeg,789.743591309,861.465209961,851.79486084,801.831481934
266,1525930598.036814, /muse/eeg,780.879150391,865.494506836,848.168518066,767.179504395
267,1525930598.036858, /muse/eeg,774.029296875,869.926757812,842.9304199219999,776.84979248
268,1525930598.0369198, /muse/eeg,772.820495605,862.67401123,840.915771484,796.593383789
269,1525930598.039587, /muse/eeg,766.373596191,862.67401123,835.274719238,784.908447266
270,1525930598.039665, /muse/eeg,755.091552734,866.3003540039999,836.4835205080001,753.0769042969999
271,1525930598.039731, /muse/eeg,760.73260498,866.703308105,838.9011230469999,765.164855957
272,1525930598.039792, /muse/eeg,763.15020752,871.538452148,836.886474609,787.32598877
273,1525930598.039856, /muse/eeg,757.912109375,871.94140625,838.9011230469999,778.05859375
274,1525930598.039932, /muse/eeg,756.703308105,868.717956543,839.706970215,760.3296508789999
275,1525930598.08096, /muse/eeg,765.970703125,869.926757812,841.3186645510001,758.717956543
276,1525930598.081007, /muse/eeg,784.102539062,871.135559082,846.9597167969999,800.219787598
277,1525930598.081026, /muse/eeg,800.219787598,870.73260498,843.73626709,820.7692260739999
278,1525930598.081053, /muse/eeg,793.772888184,872.344299316,838.9011230469999,801.025634766
279,1525930598.08108, /muse/eeg,794.9816894530001,869.926757812,841.3186645510001,784.102539062
280,1525930598.0811, /muse/eeg,813.9194335939999,869.926757812,842.9304199219999,806.666687012
281,1525930598.081119, /muse/eeg,812.307678223,871.538452148,842.9304199219999,841.721618652
282,1525930598.0811381, /muse/eeg,807.47253418,867.509155273,844.5421142580001,824.3956298830001
283,1525930598.081158, /muse/eeg,814.32232666,863.8828125,846.1538696289999,793.369934082
284,1525930598.081177, /muse/eeg,816.336975098,863.0769042969999,843.333312988,814.725280762
285,1525930598.081206, /muse/eeg,826.813171387,866.3003540039999,844.945068359,847.765563965
286,1525930598.081225, /muse/eeg,830.842468262,871.135559082,847.765563965,840.1098632810001
287,1525930598.1423368, /muse/eeg,821.9780273439999,870.73260498,847.362609863,807.8754882810001
288,1525930598.142354, /muse/eeg,821.5750732419999,870.3296508789999,847.362609863,813.9194335939999
289,1525930598.142369, /muse/eeg,835.274719238,875.567749023,848.5714111330001,856.630065918
290,1525930598.1423788, /muse/eeg,840.915771484,875.567749023,851.79486084,856.630065918
291,1525930598.142389, /muse/eeg,829.2307739260001,870.73260498,851.79486084,825.2014770510001
292,1525930598.1424038, /muse/eeg,830.0366210939999,870.3296508789999,848.5714111330001,820.7692260739999
293,1525930598.1424189, /muse/eeg,845.3479614260001,871.94140625,847.362609863,861.062255859
294,1525930598.1424289, /muse/eeg,850.58605957,874.3589477539999,847.362609863,884.029296875
295,1525930598.143305, /muse/eeg,847.765563965,869.120849609,849.780212402,849.780212402
296,1525930598.143321, /muse/eeg,846.556762695,869.926757812,852.6007080080001,826.0073242189999
297,1525930598.143331, /muse/eeg,848.974365234,874.3589477539999,851.391967773,854.2124633789999
298,1525930598.14334, /muse/eeg,855.421264648,873.553100586,850.1831665039999,880.402954102
299,1525930598.184165, /muse/eeg,851.391967773,871.538452148,853.809509277,861.465209961
300,1525930598.184222, /muse/eeg,855.0183105469999,871.538452148,853.809509277,838.0952148439999
301,1525930598.184258, /muse/eeg,855.421264648,873.15020752,850.58605957,851.391967773
302,1525930598.1842859, /muse/eeg,850.58605957,871.94140625,855.0183105469999,876.373596191
303,1525930598.184313, /muse/eeg,850.9890136719999,872.344299316,860.256408691,868.315002441
304,1525930598.184338, /muse/eeg,849.780212402,872.344299316,855.0183105469999,840.5128173830001
305,1525930598.184365, /muse/eeg,850.9890136719999,873.15020752,853.809509277,842.9304199219999
306,1525930598.184392, /muse/eeg,855.824157715,875.164855957,855.824157715,879.194152832
307,1525930598.184417, /muse/eeg,863.479858398,871.538452148,857.435913086,889.6703491210001
308,1525930598.184446, /muse/eeg,856.227111816,871.94140625,859.450561523,861.062255859
309,1525930598.184473, /muse/eeg,853.406616211,873.956054688,859.450561523,841.3186645510001
310,1525930598.1845, /muse/eeg,853.406616211,871.135559082,855.824157715,871.538452148
311,1525930598.245721, /muse/eeg,847.765563965,871.94140625,852.6007080080001,895.311340332
312,1525930598.2457519, /muse/eeg,846.556762695,871.135559082,854.2124633789999,858.644714355
313,1525930598.2457619, /muse/eeg,846.9597167969999,871.94140625,857.032958984,832.0512695310001
314,1525930598.2457721, /muse/eeg,843.333312988,873.956054688,857.838806152,852.197814941
315,1525930598.245781, /muse/eeg,859.85345459,874.761901855,848.168518066,884.432250977
316,1525930598.2457962, /muse/eeg,880.0,874.3589477539999,848.974365234,890.073242188
317,1525930598.245805, /muse/eeg,853.003662109,869.926757812,862.2710571289999,850.1831665039999
318,1525930598.2458189, /muse/eeg,826.813171387,863.479858398,860.659362793,834.871765137
319,1525930598.24583, /muse/eeg,828.8278198239999,862.67401123,855.0183105469999,859.85345459
320,1525930598.245839, /muse/eeg,818.754577637,863.8828125,856.227111816,859.450561523
321,1525930598.247181, /muse/eeg,801.831481934,859.0476074219999,861.465209961,821.5750732419999
322,1525930598.2471972, /muse/eeg,795.384643555,855.0183105469999,863.8828125,790.549438477
323,1525930598.26773, /muse/eeg,797.802185059,852.6007080080001,866.703308105,818.754577637
324,1525930598.267762, /muse/eeg,800.622680664,848.974365234,869.120849609,835.67767334
325,1525930598.267771, /muse/eeg,793.369934082,836.886474609,867.912109375,801.025634766
326,1525930598.2677789, /muse/eeg,773.223449707,830.842468262,868.717956543,773.223449707
327,1525930598.2677882, /muse/eeg,769.597045898,830.842468262,872.344299316,805.054931641
328,1525930598.267796, /muse/eeg,769.194152832,829.2307739260001,877.985351562,835.67767334
329,1525930598.267805, /muse/eeg,760.3296508789999,826.0073242189999,882.014648438,799.0109863280001
330,1525930598.267815, /muse/eeg,750.659362793,823.9926757810001,884.835144043,761.538452148
331,1525930598.267827, /muse/eeg,751.868103027,826.41027832,884.835144043,786.9230957030001
332,1525930598.2678368, /muse/eeg,762.747253418,826.813171387,884.835144043,820.7692260739999
333,1525930598.267846, /muse/eeg,752.2710571289999,822.783874512,885.6410522460001,799.0109863280001
334,1525930598.2678552, /muse/eeg,751.062255859,818.351623535,885.6410522460001,772.014648438
335,1525930598.308875, /muse/eeg,756.3003540039999,821.5750732419999,887.655700684,784.505493164
336,1525930598.308906, /muse/eeg,773.626403809,821.9780273439999,884.029296875,824.3956298830001
337,1525930598.308916, /muse/eeg,784.908447266,817.9487304689999,890.476196289,838.498168945
338,1525930598.308924, /muse/eeg,768.388305664,819.157531738,894.102539062,801.4285888669999
339,1525930598.308933, /muse/eeg,778.461547852,819.9633789060001,888.864440918,803.443237305
340,1525930598.3089461, /muse/eeg,792.161193848,817.9487304689999,892.8937988280001,855.824157715
341,1525930598.3089561, /muse/eeg,795.384643555,813.9194335939999,893.6996459960001,879.194152832
342,1525930598.308966, /muse/eeg,790.14654541,813.9194335939999,894.908447266,838.0952148439999
343,1525930598.308976, /muse/eeg,791.7582397460001,821.5750732419999,896.1171875,814.725280762
344,1525930598.308986, /muse/eeg,816.336975098,827.216125488,893.296691895,853.809509277
345,1525930598.3089962, /muse/eeg,820.366271973,828.0219726560001,890.476196289,887.252746582
346,1525930598.309006, /muse/eeg,812.7106323239999,830.842468262,887.252746582,872.344299316
347,1525930598.3706539, /muse/eeg,821.1721801760001,832.4542236330001,882.014648438,844.139221191
348,1525930598.3707519, /muse/eeg,833.2600708010001,834.871765137,884.432250977,863.8828125
349,1525930598.37081, /muse/eeg,828.4249267580001,838.498168945,886.446899414,904.578735352
350,1525930598.370856, /muse/eeg,830.0366210939999,838.9011230469999,882.417602539,892.087890625
351,1525930598.370899, /muse/eeg,830.842468262,839.706970215,886.043945312,856.630065918
352,1525930598.3709419, /muse/eeg,841.721618652,840.1098632810001,883.223449707,873.15020752
353,1525930598.3709831, /muse/eeg,854.2124633789999,842.9304199219999,876.373596191,902.564086914
354,1525930598.371033, /muse/eeg,850.58605957,847.362609863,875.164855957,894.505493164
355,1525930598.3710759, /muse/eeg,848.168518066,848.5714111330001,871.94140625,862.2710571289999
356,1525930598.3711169, /muse/eeg,839.304016113,849.780212402,868.315002441,857.032958984
357,1525930598.371159, /muse/eeg,843.333312988,853.003662109,868.315002441,880.0
358,1525930598.371201, /muse/eeg,850.1831665039999,854.615356445,867.912109375,891.282043457
359,1525930598.4127212, /muse/eeg,833.2600708010001,856.227111816,864.688659668,860.256408691
360,1525930598.412741, /muse/eeg,835.274719238,853.406616211,860.659362793,842.1245117189999
361,1525930598.4127529, /muse/eeg,848.974365234,855.0183105469999,859.85345459,863.8828125
362,1525930598.412765, /muse/eeg,857.032958984,863.479858398,857.838806152,883.626403809
363,1525930598.412777, /muse/eeg,853.406616211,859.85345459,858.644714355,867.509155273
364,1525930598.4127882, /muse/eeg,842.1245117189999,853.809509277,867.509155273,838.0952148439999
365,1525930598.4128, /muse/eeg,845.750915527,857.435913086,865.091552734,856.227111816
366,1525930598.412812, /muse/eeg,847.362609863,862.67401123,857.032958984,887.655700684
367,1525930598.412823, /muse/eeg,852.6007080080001,862.67401123,861.465209961,877.179504395
368,1525930598.4128358, /muse/eeg,850.9890136719999,863.0769042969999,865.494506836,846.9597167969999
369,1525930598.412848, /muse/eeg,850.1831665039999,861.062255859,861.062255859,852.197814941
370,1525930598.412859, /muse/eeg,857.032958984,863.479858398,859.85345459,883.223449707
371,1525930598.473516, /muse/eeg,854.2124633789999,866.703308105,859.450561523,884.029296875
372,1525930598.473546, /muse/eeg,845.3479614260001,868.717956543,860.659362793,853.003662109
373,1525930598.4744642, /muse/eeg,845.3479614260001,871.135559082,860.256408691,845.3479614260001
374,1525930598.474484, /muse/eeg,854.2124633789999,869.926757812,856.630065918,872.747253418
375,1525930598.474493, /muse/eeg,852.197814941,871.538452148,857.838806152,884.432250977
376,1525930598.474503, /muse/eeg,848.5714111330001,867.912109375,857.435913086,856.630065918
377,1525930598.4745119, /muse/eeg,845.750915527,870.73260498,857.435913086,835.67767334
378,1525930598.474522, /muse/eeg,853.809509277,876.373596191,861.465209961,857.838806152
379,1525930598.4745312, /muse/eeg,853.809509277,874.3589477539999,859.85345459,887.252746582
380,1525930598.47454, /muse/eeg,843.333312988,872.747253418,859.450561523,870.3296508789999
381,1525930598.474549, /muse/eeg,849.377319336,875.164855957,860.659362793,834.0659179689999
382,1525930598.474559, /muse/eeg,858.644714355,876.373596191,857.838806152,841.3186645510001
383,1525930598.5162811, /muse/eeg,860.256408691,873.956054688,856.227111816,873.553100586
384,1525930598.516335, /muse/eeg,851.79486084,875.970703125,854.2124633789999,869.523803711
385,1525930598.516357, /muse/eeg,848.5714111330001,875.970703125,854.615356445,840.5128173830001
386,1525930598.516393, /muse/eeg,844.945068359,873.15020752,855.421264648,841.721618652
387,1525930598.516416, /muse/eeg,843.333312988,871.135559082,857.838806152,869.523803711
388,1525930598.516439, /muse/eeg,845.3479614260001,869.926757812,859.450561523,879.194152832
389,1525930598.5164618, /muse/eeg,835.274719238,872.747253418,861.465209961,851.79486084
390,1525930598.516484, /muse/eeg,836.886474609,872.344299316,861.868103027,835.274719238
391,1525930598.516506, /muse/eeg,843.333312988,871.94140625,859.450561523,859.85345459
392,1525930598.516528, /muse/eeg,842.1245117189999,874.3589477539999,857.435913086,882.820495605
393,1525930598.51655, /muse/eeg,841.3186645510001,873.553100586,856.630065918,861.465209961
394,1525930598.516581, /muse/eeg,842.1245117189999,872.344299316,858.2417602539999,833.2600708010001
395,1525930598.557555, /muse/eeg,836.886474609,871.135559082,856.630065918,860.256408691
396,1525930598.557573, /muse/eeg,842.1245117189999,873.956054688,854.615356445,886.84979248
397,1525930598.5575821, /muse/eeg,851.391967773,875.970703125,857.032958984,867.912109375
398,1525930598.557592, /muse/eeg,846.9597167969999,872.344299316,856.630065918,840.5128173830001
399,1525930598.558283, /muse/eeg,846.556762695,871.538452148,856.630065918,847.362609863
400,1525930598.558299, /muse/eeg,848.974365234,875.164855957,856.227111816,873.15020752
401,1525930598.5583081, /muse/eeg,850.58605957,879.597045898,854.615356445,869.523803711
402,1525930598.558317, /muse/eeg,853.406616211,871.538452148,855.0183105469999,843.333312988
403,1525930598.558326, /muse/eeg,861.062255859,861.868103027,854.615356445,853.406616211
404,1525930598.558335, /muse/eeg,864.285705566,873.553100586,853.809509277,886.446899414
405,1525930598.558344, /muse/eeg,845.3479614260001,888.864440918,850.58605957,871.135559082
406,1525930598.558353, /muse/eeg,840.915771484,884.029296875,848.974365234,837.692321777
407,1525930598.600266, /muse/eeg,842.1245117189999,878.79119873,849.780212402,825.2014770510001
408,1525930598.6003551, /muse/eeg,834.46887207,882.417602539,847.362609863,842.9304199219999
409,1525930598.600425, /muse/eeg,844.139221191,884.835144043,847.765563965,873.15020752
410,1525930598.600468, /muse/eeg,848.5714111330001,886.446899414,848.168518066,854.2124633789999
411,1525930598.6005108, /muse/eeg,850.1831665039999,884.835144043,845.750915527,822.380981445
412,1525930598.6005552, /muse/eeg,850.1831665039999,883.223449707,845.750915527,842.52746582
413,1525930598.600599, /muse/eeg,849.780212402,882.820495605,850.1831665039999,864.688659668
414,1525930598.600641, /muse/eeg,849.377319336,878.79119873,850.9890136719999,848.974365234
415,1525930598.600692, /muse/eeg,847.765563965,878.79119873,846.9597167969999,817.5457763669999
416,1525930598.600734, /muse/eeg,838.0952148439999,883.223449707,848.974365234,822.380981445
417,1525930598.600776, /muse/eeg,833.663024902,880.402954102,853.406616211,863.0769042969999
418,1525930598.6008189, /muse/eeg,837.2893676760001,874.761901855,855.421264648,864.285705566
419,1525930598.684006, /muse/eeg,832.8571166989999,873.15020752,857.435913086,834.46887207
420,1525930598.6840231, /muse/eeg,834.46887207,875.970703125,858.2417602539999,831.245422363
421,1525930598.684032, /muse/eeg,836.0805664060001,877.582397461,856.630065918,855.824157715
422,1525930598.684044, /muse/eeg,836.4835205080001,875.970703125,853.003662109,873.553100586
423,1525930598.684053, /muse/eeg,835.274719238,875.164855957,853.809509277,853.406616211
424,1525930598.684062, /muse/eeg,830.439575195,873.956054688,856.227111816,826.0073242189999
425,1525930598.684949, /muse/eeg,833.2600708010001,874.761901855,857.435913086,848.5714111330001
426,1525930598.684974, /muse/eeg,836.4835205080001,872.747253418,858.2417602539999,871.94140625
427,1525930598.684985, /muse/eeg,832.4542236330001,873.15020752,856.227111816,852.197814941
428,1525930598.6849961, /muse/eeg,827.619018555,873.553100586,855.824157715,825.6043701169999
429,1525930598.685004, /muse/eeg,836.0805664060001,871.538452148,854.615356445,836.0805664060001
430,1525930598.685013, /muse/eeg,848.5714111330001,876.373596191,852.197814941,872.747253418
431,1525930598.6850529, /muse/eeg,854.2124633789999,878.79119873,854.2124633789999,868.717956543
432,1525930598.685062, /muse/eeg,851.79486084,875.970703125,857.032958984,834.0659179689999
433,1525930598.685071, /muse/eeg,853.003662109,875.567749023,855.0183105469999,840.1098632810001
434,1525930598.68508, /muse/eeg,864.285705566,875.970703125,854.2124633789999,878.79119873
435,1525930598.6850882, /muse/eeg,858.2417602539999,878.388305664,854.2124633789999,872.344299316
436,1525930598.685097, /muse/eeg,847.765563965,874.761901855,853.406616211,839.706970215
437,1525930598.685106, /muse/eeg,840.5128173830001,872.747253418,854.615356445,832.4542236330001
438,1525930598.6851141, /muse/eeg,842.52746582,874.761901855,855.824157715,852.197814941
439,1525930598.685123, /muse/eeg,838.0952148439999,873.956054688,855.824157715,868.717956543
440,1525930598.685132, /muse/eeg,834.46887207,871.538452148,855.421264648,844.945068359
441,1525930598.685141, /muse/eeg,839.706970215,873.956054688,856.630065918,819.9633789060001
442,1525930598.68515, /muse/eeg,845.3479614260001,875.970703125,855.824157715,849.780212402
443,1525930598.745889, /muse/eeg,851.79486084,877.985351562,853.809509277,878.79119873
444,1525930598.745917, /muse/eeg,846.556762695,878.388305664,854.615356445,860.659362793
445,1525930598.7459269, /muse/eeg,843.333312988,871.538452148,855.421264648,829.2307739260001
446,1525930598.745936, /muse/eeg,848.168518066,871.94140625,855.0183105469999,833.2600708010001
447,1525930598.7459462, /muse/eeg,846.9597167969999,873.956054688,853.406616211,866.3003540039999
448,1525930598.74596, /muse/eeg,840.915771484,869.120849609,856.227111816,862.67401123
449,1525930598.74597, /muse/eeg,834.871765137,863.479858398,859.85345459,830.439575195
450,1525930598.74598, /muse/eeg,836.0805664060001,868.315002441,854.2124633789999,825.2014770510001
451,1525930598.746655, /muse/eeg,850.1831665039999,874.3589477539999,850.9890136719999,852.197814941
452,1525930598.746669, /muse/eeg,854.2124633789999,871.94140625,850.1831665039999,863.479858398
453,1525930598.7466788, /muse/eeg,836.0805664060001,871.135559082,850.1831665039999,831.648376465
454,1525930598.7466881, /muse/eeg,834.871765137,872.344299316,850.58605957,820.366271973
455,1525930598.78789, /muse/eeg,850.58605957,873.553100586,850.9890136719999,861.465209961
456,1525930598.7879279, /muse/eeg,848.5714111330001,873.956054688,848.974365234,881.611694336
457,1525930598.787942, /muse/eeg,837.2893676760001,874.761901855,848.5714111330001,848.5714111330001
458,1525930598.787955, /muse/eeg,838.9011230469999,874.761901855,852.197814941,823.9926757810001
459,1525930598.787967, /muse/eeg,847.765563965,867.1062011719999,853.809509277,850.9890136719999
460,1525930598.78798, /muse/eeg,869.523803711,861.062255859,855.824157715,896.9230957030001
461,1525930598.787993, /muse/eeg,866.703308105,873.15020752,853.809509277,881.611694336
462,1525930598.788006, /muse/eeg,840.5128173830001,881.20880127,849.377319336,825.2014770510001
463,1525930598.78802, /muse/eeg,836.4835205080001,881.611694336,846.9597167969999,830.0366210939999
464,1525930598.788032, /muse/eeg,840.1098632810001,875.567749023,848.5714111330001,865.494506836
465,1525930598.788044, /muse/eeg,837.692321777,875.970703125,848.5714111330001,855.421264648
466,1525930598.788057, /muse/eeg,828.8278198239999,882.820495605,843.73626709,819.9633789060001
467,1525930598.850032, /muse/eeg,830.0366210939999,882.417602539,844.139221191,826.41027832
468,1525930598.850063, /muse/eeg,843.73626709,882.820495605,847.765563965,869.120849609
469,1525930598.850075, /muse/eeg,848.974365234,879.597045898,849.377319336,883.626403809
470,1525930598.850086, /muse/eeg,835.274719238,876.373596191,848.974365234,850.9890136719999
471,1525930598.8500972, /muse/eeg,830.0366210939999,874.761901855,848.974365234,828.0219726560001
472,1525930598.850114, /muse/eeg,842.9304199219999,872.747253418,848.974365234,853.406616211
473,1525930598.850126, /muse/eeg,848.168518066,873.956054688,847.765563965,873.956054688
474,1525930598.8501391, /muse/eeg,837.692321777,875.567749023,846.556762695,849.780212402
475,1525930598.85015, /muse/eeg,832.0512695310001,874.3589477539999,846.556762695,823.58972168
476,1525930598.850162, /muse/eeg,833.2600708010001,872.747253418,847.765563965,834.46887207
477,1525930598.850989, /muse/eeg,830.439575195,873.956054688,846.9597167969999,855.421264648
478,1525930598.851007, /muse/eeg,827.619018555,871.94140625,848.974365234,850.58605957
479,1525930598.892098, /muse/eeg,823.58972168,867.912109375,850.1831665039999,820.366271973
480,1525930598.892152, /muse/eeg,828.4249267580001,870.73260498,850.58605957,827.216125488
481,1525930598.892175, /muse/eeg,834.0659179689999,872.747253418,850.9890136719999,861.465209961
482,1525930598.8921971, /muse/eeg,826.813171387,870.3296508789999,851.79486084,858.644714355
483,1525930598.89222, /muse/eeg,830.439575195,869.120849609,855.0183105469999,832.0512695310001
484,1525930598.892243, /muse/eeg,833.2600708010001,868.315002441,855.421264648,828.0219726560001
485,1525930598.892267, /muse/eeg,834.871765137,870.3296508789999,855.0183105469999,850.1831665039999
486,1525930598.892291, /muse/eeg,827.619018555,874.761901855,852.197814941,866.703308105
487,1525930598.892314, /muse/eeg,829.633728027,869.120849609,853.406616211,845.750915527
488,1525930598.8923368, /muse/eeg,834.0659179689999,867.912109375,855.824157715,826.41027832
489,1525930598.89236, /muse/eeg,825.6043701169999,875.970703125,855.0183105469999,837.2893676760001
490,1525930598.892383, /muse/eeg,830.0366210939999,875.567749023,854.615356445,852.6007080080001
491,1525930598.933245, /muse/eeg,828.0219726560001,871.538452148,853.003662109,837.692321777
492,1525930598.933275, /muse/eeg,817.9487304689999,871.94140625,851.79486084,809.084228516
493,1525930598.933285, /muse/eeg,815.53112793,872.747253418,850.1831665039999,824.3956298830001
494,1525930598.933294, /muse/eeg,828.8278198239999,871.135559082,847.362609863,869.120849609
495,1525930598.9333029, /muse/eeg,831.245422363,867.912109375,852.197814941,855.0183105469999
496,1525930598.933312, /muse/eeg,813.5164794919999,864.285705566,857.435913086,798.20513916
497,1525930598.933321, /muse/eeg,811.0988769530001,870.73260498,855.824157715,804.249084473
498,1525930598.933331, /muse/eeg,829.2307739260001,874.761901855,853.003662109,853.003662109
499,1525930598.933341, /muse/eeg,844.139221191,871.94140625,854.2124633789999,859.0476074219999
500,1525930598.933351, /muse/eeg,823.58972168,873.553100586,854.2124633789999,817.1428833010001
501,1525930598.9333599, /muse/eeg,811.501831055,874.3589477539999,852.197814941,802.637390137
502,1525930598.9333699, /muse/eeg,826.0073242189999,869.926757812,852.197814941,832.4542236330001
503,1525930598.974577, /muse/eeg,831.245422363,870.3296508789999,850.58605957,852.197814941
504,1525930598.974592, /muse/eeg,830.842468262,874.3589477539999,852.6007080080001,827.216125488
505,1525930598.974601, /muse/eeg,828.4249267580001,871.135559082,852.6007080080001,800.219787598
506,1525930598.974611, /muse/eeg,846.556762695,870.73260498,850.58605957,833.2600708010001
507,1525930598.9746199, /muse/eeg,844.5421142580001,874.761901855,854.2124633789999,865.494506836
508,1525930598.974629, /muse/eeg,823.58972168,874.761901855,854.615356445,839.304016113
509,1525930598.9746392, /muse/eeg,832.4542236330001,874.761901855,851.391967773,821.5750732419999
510,1525930598.974648, /muse/eeg,841.3186645510001,873.553100586,849.780212402,838.0952148439999
511,1525930598.974657, /muse/eeg,843.333312988,871.135559082,850.9890136719999,865.494506836
512,1525930598.974665, /muse/eeg,842.52746582,871.94140625,849.780212402,861.062255859
513,1525930598.974675, /muse/eeg,843.73626709,873.15020752,850.9890136719999,831.245422363
514,1525930598.974683, /muse/eeg,836.886474609,873.956054688,850.58605957,836.886474609
515,1525930599.016274, /muse/eeg,836.0805664060001,873.15020752,847.765563965,859.85345459
516,1525930599.016361, /muse/eeg,834.46887207,875.970703125,847.765563965,859.0476074219999
517,1525930599.016405, /muse/eeg,838.0952148439999,875.970703125,849.377319336,833.663024902
518,1525930599.016447, /muse/eeg,849.377319336,874.3589477539999,849.780212402,827.619018555
519,1525930599.01649, /muse/eeg,843.73626709,875.567749023,846.9597167969999,853.406616211
520,1525930599.016534, /muse/eeg,839.304016113,872.344299316,846.1538696289999,862.2710571289999
521,1525930599.016576, /muse/eeg,828.4249267580001,869.926757812,848.168518066,830.439575195
522,1525930599.0166368, /muse/eeg,823.58972168,864.688659668,848.5714111330001,806.666687012
523,1525930599.01669, /muse/eeg,833.2600708010001,866.703308105,850.58605957,834.46887207
524,1525930599.016732, /muse/eeg,839.706970215,873.15020752,850.58605957,864.285705566
525,1525930599.016774, /muse/eeg,843.73626709,871.135559082,847.765563965,843.333312988
526,1525930599.016814, /muse/eeg,834.871765137,869.926757812,848.168518066,813.5164794919999
527,1525930599.0570788, /muse/eeg,840.915771484,874.761901855,848.168518066,827.619018555
528,1525930599.057105, /muse/eeg,847.362609863,874.761901855,849.377319336,866.703308105
529,1525930599.0577052, /muse/eeg,835.274719238,870.3296508789999,852.197814941,860.659362793
530,1525930599.057719, /muse/eeg,835.67767334,871.538452148,850.9890136719999,819.560424805
531,1525930599.0577278, /muse/eeg,831.245422363,869.523803711,852.6007080080001,815.9340820310001
532,1525930599.057738, /muse/eeg,814.725280762,864.285705566,855.0183105469999,843.73626709
533,1525930599.0577471, /muse/eeg,826.0073242189999,859.450561523,854.2124633789999,857.838806152
534,1525930599.057758, /muse/eeg,828.0219726560001,861.465209961,853.809509277,836.886474609
535,1525930599.057777, /muse/eeg,832.4542236330001,868.315002441,853.003662109,824.3956298830001
536,1525930599.057792, /muse/eeg,836.0805664060001,870.73260498,852.6007080080001,841.721618652
537,1525930599.057803, /muse/eeg,822.783874512,870.3296508789999,849.377319336,853.809509277
538,1525930599.057812, /muse/eeg,828.8278198239999,869.120849609,848.5714111330001,834.0659179689999
539,1525930599.119701, /muse/eeg,826.41027832,868.315002441,848.168518066,813.113525391
540,1525930599.119731, /muse/eeg,830.0366210939999,867.912109375,847.362609863,838.498168945
541,1525930599.119741, /muse/eeg,832.8571166989999,867.912109375,848.5714111330001,867.1062011719999
542,1525930599.11975, /muse/eeg,829.633728027,868.315002441,849.377319336,850.1831665039999
543,1525930599.11976, /muse/eeg,826.0073242189999,867.509155273,849.780212402,811.501831055
544,1525930599.1197731, /muse/eeg,836.886474609,866.703308105,849.780212402,821.9780273439999
545,1525930599.119783, /muse/eeg,838.9011230469999,867.912109375,849.780212402,861.465209961
546,1525930599.119793, /muse/eeg,819.9633789060001,867.509155273,853.406616211,856.227111816
547,1525930599.119803, /muse/eeg,814.32232666,868.717956543,855.421264648,812.7106323239999
548,1525930599.1198132, /muse/eeg,825.2014770510001,869.523803711,854.615356445,802.234436035
549,1525930599.119823, /muse/eeg,832.8571166989999,870.3296508789999,856.630065918,847.765563965
550,1525930599.119832, /muse/eeg,825.6043701169999,867.912109375,858.644714355,867.912109375
551,1525930599.160109, /muse/eeg,815.9340820310001,867.1062011719999,862.67401123,828.8278198239999
552,1525930599.16014, /muse/eeg,819.157531738,866.703308105,862.67401123,799.8168334960001
553,1525930599.16016, /muse/eeg,811.501831055,861.868103027,860.256408691,818.754577637
554,1525930599.160179, /muse/eeg,803.443237305,864.285705566,863.8828125,838.498168945
555,1525930599.1613462, /muse/eeg,788.937744141,854.615356445,863.8828125,801.025634766
556,1525930599.16137, /muse/eeg,777.655700684,840.1098632810001,869.523803711,771.20880127
557,1525930599.161389, /muse/eeg,773.223449707,844.139221191,877.179504395,774.835144043
558,1525930599.161409, /muse/eeg,749.85345459,863.479858398,873.956054688,771.20880127
559,1525930599.161428, /muse/eeg,717.619018555,861.062255859,878.388305664,746.227111816
560,1525930599.161447, /muse/eeg,701.0988769530001,853.406616211,882.820495605,691.4285888669999
561,1525930599.1614661, /muse/eeg,693.8461303710001,859.0476074219999,878.79119873,677.32598877
562,1525930599.1614869, /muse/eeg,686.9963378909999,855.824157715,877.985351562,700.695983887
563,1525930599.2225811, /muse/eeg,677.32598877,856.630065918,871.135559082,686.9963378909999
564,1525930599.222615, /muse/eeg,662.417602539,859.450561523,864.688659668,639.85345459
565,1525930599.2226288, /muse/eeg,664.432250977,859.450561523,863.0769042969999,630.58605957
566,1525930599.222641, /muse/eeg,657.985351562,858.2417602539999,861.868103027,651.135559082
567,1525930599.222655, /muse/eeg,662.417602539,857.838806152,858.644714355,665.641052246
568,1525930599.222669, /muse/eeg,676.1171875,858.644714355,857.435913086,651.538452148
569,1525930599.222682, /muse/eeg,670.073242188,862.2710571289999,855.421264648,635.0183105469999
570,1525930599.222696, /muse/eeg,684.175842285,869.926757812,849.377319336,673.699645996
571,1525930599.222709, /muse/eeg,713.58972168,875.164855957,841.3186645510001,709.560424805
572,1525930599.222722, /muse/eeg,721.648376465,878.388305664,836.4835205080001,703.113525391
573,1525930599.222735, /muse/eeg,732.52746582,878.388305664,836.0805664060001,692.234436035
574,1525930599.222748, /muse/eeg,742.6007080080001,883.626403809,832.0512695310001,716.41027832
575,1525930599.263658, /muse/eeg,745.0183105469999,884.029296875,832.4542236330001,767.582397461
576,1525930599.263687, /muse/eeg,761.538452148,884.029296875,832.8571166989999,778.05859375
577,1525930599.2636971, /muse/eeg,784.908447266,884.835144043,830.842468262,765.970703125
578,1525930599.263706, /muse/eeg,798.608032227,887.252746582,825.2014770510001,776.446899414
579,1525930599.263716, /muse/eeg,811.0988769530001,891.282043457,823.9926757810001,809.4871826169999
580,1525930599.263725, /muse/eeg,818.754577637,886.446899414,826.813171387,832.8571166989999
581,1525930599.264477, /muse/eeg,830.439575195,886.043945312,826.41027832,819.9633789060001
582,1525930599.264491, /muse/eeg,843.73626709,894.505493164,824.7985229489999,813.5164794919999
583,1525930599.264501, /muse/eeg,848.974365234,901.355285645,822.380981445,842.9304199219999
584,1525930599.26451, /muse/eeg,856.630065918,894.505493164,825.6043701169999,877.582397461
585,1525930599.264519, /muse/eeg,853.809509277,892.490844727,827.216125488,855.0183105469999
586,1525930599.264529, /muse/eeg,852.6007080080001,896.520141602,825.6043701169999,827.619018555
587,1525930599.305915, /muse/eeg,868.717956543,892.087890625,825.2014770510001,860.256408691
588,1525930599.305945, /muse/eeg,886.84979248,895.714294434,823.58972168,895.311340332
589,1525930599.3059552, /muse/eeg,892.490844727,902.161193848,820.366271973,881.611694336
590,1525930599.305965, /muse/eeg,894.102539062,900.549438477,817.9487304689999,859.0476074219999
591,1525930599.305974, /muse/eeg,899.743591309,898.131896973,819.560424805,877.582397461
592,1525930599.305983, /muse/eeg,906.593383789,896.1171875,821.1721801760001,914.249084473
593,1525930599.305998, /muse/eeg,912.234436035,898.534790039,822.783874512,928.351623535
594,1525930599.306008, /muse/eeg,919.8901367189999,904.175842285,822.783874512,904.175842285
595,1525930599.3060179, /muse/eeg,919.084228516,901.355285645,826.0073242189999,894.102539062
596,1525930599.306028, /muse/eeg,928.754577637,902.564086914,825.2014770510001,925.128234863
597,1525930599.3060381, /muse/eeg,928.351623535,900.9523925780001,823.186828613,935.6043701169999
598,1525930599.3060482, /muse/eeg,914.6520385739999,897.7289428710001,828.4249267580001,906.190490723
599,1525930599.367918, /muse/eeg,916.26373291,902.161193848,828.4249267580001,893.6996459960001
600,1525930599.367975, /muse/eeg,933.58972168,904.9816894530001,822.380981445,926.336975098
601,1525930599.3679981, /muse/eeg,944.0659179689999,904.578735352,824.7985229489999,956.556762695
602,1525930599.368033, /muse/eeg,930.366271973,900.9523925780001,834.46887207,935.6043701169999
603,1525930599.368056, /muse/eeg,925.128234863,898.534790039,838.0952148439999,910.219787598
604,1525930599.3680801, /muse/eeg,933.9926757810001,900.549438477,838.0952148439999,931.1721801760001
605,1525930599.3681018, /muse/eeg,937.216125488,900.14654541,838.498168945,952.1245117189999
606,1525930599.368125, /muse/eeg,940.0366210939999,894.908447266,838.9011230469999,941.648376465
607,1525930599.369591, /muse/eeg,927.9487304689999,893.6996459960001,836.0805664060001,916.666687012
608,1525930599.369621, /muse/eeg,930.7692260739999,898.937744141,834.46887207,917.8754882810001
609,1525930599.369644, /muse/eeg,938.0219726560001,900.14654541,835.274719238,946.4835205080001
610,1525930599.369667, /muse/eeg,929.560424805,897.7289428710001,838.9011230469999,943.663024902
611,1525930599.389808, /muse/eeg,919.4871826169999,894.908447266,842.9304199219999,905.7875366210001
612,1525930599.389827, /muse/eeg,920.293029785,893.6996459960001,845.3479614260001,899.340637207
613,1525930599.3898358, /muse/eeg,931.1721801760001,892.087890625,847.362609863,942.0512695310001
614,1525930599.389846, /muse/eeg,917.8754882810001,892.490844727,850.1831665039999,952.1245117189999
615,1525930599.3898551, /muse/eeg,903.772888184,892.8937988280001,852.6007080080001,904.9816894530001
616,1525930599.389865, /muse/eeg,908.608032227,889.6703491210001,852.197814941,891.282043457
617,1525930599.389874, /muse/eeg,913.0402832030001,890.879150391,850.1831665039999,919.8901367189999
618,1525930599.389884, /muse/eeg,913.0402832030001,892.087890625,850.9890136719999,938.0219726560001
619,1525930599.389893, /muse/eeg,911.025634766,894.102539062,850.58605957,911.025634766
620,1525930599.3899028, /muse/eeg,912.234436035,891.282043457,848.974365234,879.194152832
621,1525930599.389912, /muse/eeg,905.384643555,888.864440918,851.391967773,901.7582397460001
622,1525930599.3899212, /muse/eeg,902.564086914,890.476196289,848.5714111330001,935.2014770510001
623,1525930599.450194, /muse/eeg,898.937744141,893.296691895,846.1538696289999,914.6520385739999
624,1525930599.450226, /muse/eeg,883.223449707,888.05859375,851.391967773,882.820495605
625,1525930599.4502368, /muse/eeg,887.252746582,878.79119873,854.615356445,892.8937988280001
626,1525930599.450247, /muse/eeg,891.684997559,883.626403809,851.79486084,918.278381348
627,1525930599.450257, /muse/eeg,892.087890625,887.252746582,848.5714111330001,911.831481934
628,1525930599.450274, /muse/eeg,885.6410522460001,882.014648438,849.377319336,878.79119873
629,1525930599.450284, /muse/eeg,870.3296508789999,877.582397461,851.79486084,876.373596191
630,1525930599.450295, /muse/eeg,881.611694336,878.79119873,852.6007080080001,906.190490723
631,1525930599.450306, /muse/eeg,887.252746582,884.432250977,851.391967773,911.025634766
632,1525930599.4503222, /muse/eeg,882.417602539,884.432250977,849.780212402,886.043945312
633,1525930599.4512029, /muse/eeg,878.388305664,886.043945312,846.9597167969999,867.1062011719999
634,1525930599.4512231, /muse/eeg,878.388305664,888.05859375,849.377319336,875.970703125
635,1525930599.491796, /muse/eeg,883.223449707,887.252746582,846.9597167969999,900.9523925780001
636,1525930599.491867, /muse/eeg,868.717956543,883.223449707,844.945068359,881.611694336
637,1525930599.4919, /muse/eeg,868.315002441,877.582397461,852.197814941,855.0183105469999
638,1525930599.491933, /muse/eeg,869.120849609,880.0,852.197814941,868.315002441
639,1525930599.491964, /muse/eeg,851.79486084,882.417602539,850.9890136719999,889.26739502
640,1525930599.491996, /muse/eeg,859.450561523,875.164855957,854.615356445,889.26739502
641,1525930599.492045, /muse/eeg,857.032958984,870.73260498,854.2124633789999,858.2417602539999
642,1525930599.492082, /muse/eeg,851.391967773,875.164855957,853.809509277,844.5421142580001
643,1525930599.492117, /muse/eeg,865.494506836,882.820495605,851.79486084,880.0
644,1525930599.492162, /muse/eeg,872.747253418,880.805847168,849.377319336,888.864440918
645,1525930599.492193, /muse/eeg,865.897460938,879.597045898,853.003662109,855.0183105469999
646,1525930599.492223, /muse/eeg,860.659362793,884.835144043,849.377319336,843.73626709
647,1525930599.55518, /muse/eeg,864.285705566,884.835144043,847.765563965,871.135559082
648,1525930599.555208, /muse/eeg,864.688659668,883.223449707,849.780212402,890.073242188
649,1525930599.555217, /muse/eeg,855.421264648,874.3589477539999,851.79486084,864.688659668
650,1525930599.555225, /muse/eeg,860.659362793,866.3003540039999,859.450561523,857.838806152
651,1525930599.555234, /muse/eeg,862.2710571289999,876.776550293,856.630065918,874.761901855
652,1525930599.555242, /muse/eeg,859.0476074219999,880.0,850.9890136719999,880.805847168
653,1525930599.555251, /muse/eeg,850.58605957,882.417602539,850.9890136719999,855.824157715
654,1525930599.555263, /muse/eeg,831.245422363,881.20880127,852.197814941,816.7399291989999
655,1525930599.5552769, /muse/eeg,846.1538696289999,878.79119873,848.168518066,837.692321777
656,1525930599.555287, /muse/eeg,862.2710571289999,888.461547852,842.52746582,868.315002441
657,1525930599.555295, /muse/eeg,852.197814941,888.461547852,843.333312988,853.809509277
658,1525930599.5553038, /muse/eeg,847.765563965,884.432250977,843.333312988,823.186828613
659,1525930599.597193, /muse/eeg,851.79486084,885.6410522460001,838.9011230469999,822.380981445
660,1525930599.5972831, /muse/eeg,848.168518066,885.238098145,838.0952148439999,861.062255859
661,1525930599.597348, /muse/eeg,843.333312988,884.432250977,838.0952148439999,865.494506836
662,1525930599.5973911, /muse/eeg,842.9304199219999,886.043945312,837.2893676760001,827.619018555
663,1525930599.597434, /muse/eeg,846.9597167969999,881.20880127,838.498168945,817.9487304689999
664,1525930599.597476, /muse/eeg,850.1831665039999,877.985351562,840.1098632810001,845.3479614260001
665,1525930599.597518, /muse/eeg,851.391967773,880.402954102,841.3186645510001,861.062255859
666,1525930599.597561, /muse/eeg,841.721618652,881.611694336,839.304016113,836.0805664060001
667,1525930599.597616, /muse/eeg,842.1245117189999,878.79119873,840.5128173830001,820.366271973
668,1525930599.59766, /muse/eeg,850.9890136719999,875.567749023,846.1538696289999,840.1098632810001
669,1525930599.597702, /muse/eeg,846.9597167969999,878.79119873,850.58605957,866.703308105
670,1525930599.597745, /muse/eeg,844.5421142580001,882.417602539,848.168518066,856.227111816
671,1525930599.639461, /muse/eeg,839.304016113,877.582397461,842.52746582,815.53112793
672,1525930599.639503, /muse/eeg,828.8278198239999,874.3589477539999,843.333312988,813.113525391
673,1525930599.639519, /muse/eeg,830.0366210939999,878.388305664,844.5421142580001,838.498168945
674,1525930599.639535, /muse/eeg,827.619018555,883.626403809,838.0952148439999,829.633728027
675,1525930599.639551, /muse/eeg,808.278381348,875.970703125,834.46887207,788.534790039
676,1525930599.639567, /muse/eeg,795.7875366210001,868.717956543,840.915771484,777.655700684
677,1525930599.63959, /muse/eeg,794.175842285,881.20880127,840.5128173830001,797.3992919919999
678,1525930599.639606, /muse/eeg,779.26739502,879.194152832,830.439575195,796.593383789
679,1525930599.639622, /muse/eeg,755.897460938,871.538452148,828.0219726560001,751.465209961
680,1525930599.639641, /muse/eeg,737.362609863,878.79119873,830.0366210939999,710.7692260739999
681,1525930599.6396651, /muse/eeg,723.2600708010001,887.252746582,823.58972168,725.274719238
682,1525930599.639681, /muse/eeg,728.9011230469999,880.0,820.366271973,748.644714355
683,1525930599.681113, /muse/eeg,731.3186645510001,873.956054688,827.619018555,728.0952148439999
684,1525930599.6811302, /muse/eeg,721.648376465,874.761901855,826.813171387,692.637390137
685,1525930599.681761, /muse/eeg,722.0512695310001,875.567749023,825.6043701169999,710.366271973
686,1525930599.681773, /muse/eeg,713.58972168,875.164855957,826.41027832,736.556762695
687,1525930599.681782, /muse/eeg,715.2014770510001,869.926757812,823.9926757810001,722.8571166989999
688,1525930599.681794, /muse/eeg,734.5421142580001,870.3296508789999,826.41027832,705.128234863
689,1525930599.681803, /muse/eeg,738.974365234,881.20880127,823.186828613,713.186828613
690,1525930599.6818118, /muse/eeg,749.450561523,883.223449707,819.9633789060001,758.315002441
691,1525930599.681821, /muse/eeg,765.567749023,878.388305664,828.0219726560001,777.252746582
692,1525930599.6818302, /muse/eeg,764.761901855,883.626403809,830.439575195,752.2710571289999
693,1525930599.681842, /muse/eeg,765.970703125,882.820495605,833.2600708010001,757.912109375
694,1525930599.68185, /muse/eeg,782.8937988280001,881.611694336,833.663024902,804.6520385739999
695,1525930599.723693, /muse/eeg,796.996337891,884.432250977,830.439575195,815.53112793
696,1525930599.723721, /muse/eeg,803.8461303710001,884.835144043,830.439575195,782.087890625
697,1525930599.72373, /muse/eeg,817.5457763669999,883.626403809,832.0512695310001,782.8937988280001
698,1525930599.7237391, /muse/eeg,826.0073242189999,879.194152832,840.1098632810001,823.9926757810001
699,1525930599.723747, /muse/eeg,827.216125488,875.164855957,844.5421142580001,853.406616211
700,1525930599.723756, /muse/eeg,838.0952148439999,876.373596191,844.945068359,844.139221191
701,1525930599.7237651, /muse/eeg,845.750915527,877.582397461,844.945068359,829.633728027
702,1525930599.723774, /muse/eeg,850.1831665039999,871.135559082,845.3479614260001,856.630065918
703,1525930599.723783, /muse/eeg,863.479858398,871.94140625,850.1831665039999,894.908447266
704,1525930599.7237911, /muse/eeg,867.1062011719999,882.014648438,847.765563965,879.597045898
705,1525930599.7238, /muse/eeg,881.611694336,878.388305664,844.945068359,853.809509277
706,1525930599.723809, /muse/eeg,889.6703491210001,873.956054688,850.1831665039999,869.523803711
707,1525930599.785768, /muse/eeg,890.073242188,874.761901855,853.406616211,915.054931641
708,1525930599.785799, /muse/eeg,900.9523925780001,873.956054688,861.868103027,925.128234863
709,1525930599.785809, /muse/eeg,898.131896973,871.538452148,864.688659668,892.087890625
710,1525930599.7858179, /muse/eeg,892.087890625,872.344299316,859.85345459,891.684997559
711,1525930599.786608, /muse/eeg,900.549438477,875.970703125,859.450561523,921.0988769530001
712,1525930599.7866302, /muse/eeg,906.996337891,875.970703125,857.435913086,930.7692260739999
713,1525930599.786642, /muse/eeg,901.7582397460001,871.135559082,858.2417602539999,904.175842285
714,1525930599.7866518, /muse/eeg,893.296691895,865.897460938,862.67401123,881.20880127
715,1525930599.7866619, /muse/eeg,900.549438477,872.747253418,862.2710571289999,905.384643555
716,1525930599.786674, /muse/eeg,902.161193848,879.194152832,861.062255859,929.9633789060001
717,1525930599.786686, /muse/eeg,901.7582397460001,871.538452148,862.67401123,915.860778809
718,1525930599.786699, /muse/eeg,901.355285645,871.538452148,862.67401123,886.84979248
719,1525930599.806858, /muse/eeg,904.175842285,877.179504395,859.0476074219999,887.655700684
720,1525930599.806875, /muse/eeg,909.0109863280001,876.373596191,861.062255859,919.4871826169999
721,1525930599.806884, /muse/eeg,897.32598877,875.567749023,865.897460938,915.054931641
722,1525930599.806894, /muse/eeg,883.626403809,876.373596191,864.688659668,875.567749023
723,1525930599.806903, /muse/eeg,879.597045898,876.776550293,861.465209961,871.538452148
724,1525930599.806912, /muse/eeg,882.014648438,877.985351562,861.062255859,900.9523925780001
725,1525930599.806924, /muse/eeg,882.820495605,874.3589477539999,860.659362793,907.802185059
726,1525930599.8069339, /muse/eeg,871.538452148,872.344299316,860.256408691,872.344299316
727,1525930599.806943, /muse/eeg,869.926757812,873.553100586,859.85345459,863.479858398
728,1525930599.806952, /muse/eeg,879.194152832,872.344299316,859.450561523,887.655700684
729,1525930599.8069608, /muse/eeg,880.402954102,868.717956543,860.659362793,898.534790039
730,1525930599.806969, /muse/eeg,873.956054688,867.509155273,864.285705566,877.582397461
731,1525930599.868178, /muse/eeg,863.479858398,872.344299316,864.285705566,853.406616211
732,1525930599.868207, /muse/eeg,859.85345459,873.956054688,862.2710571289999,868.717956543
733,1525930599.868216, /muse/eeg,861.868103027,872.747253418,863.0769042969999,884.029296875
734,1525930599.868225, /muse/eeg,859.450561523,871.538452148,861.062255859,871.135559082
735,1525930599.868234, /muse/eeg,861.868103027,870.73260498,859.0476074219999,855.421264648
736,1525930599.868242, /muse/eeg,865.897460938,870.3296508789999,858.644714355,866.703308105
737,1525930599.8690221, /muse/eeg,859.450561523,869.120849609,861.465209961,890.879150391
738,1525930599.869041, /muse/eeg,857.435913086,873.15020752,859.450561523,881.20880127
739,1525930599.869053, /muse/eeg,859.450561523,878.388305664,856.630065918,851.79486084
740,1525930599.869065, /muse/eeg,861.465209961,877.179504395,855.421264648,849.780212402
741,1525930599.869078, /muse/eeg,869.523803711,876.776550293,854.615356445,879.194152832
742,1525930599.869092, /muse/eeg,866.703308105,876.373596191,853.809509277,885.6410522460001
743,1525930599.909516, /muse/eeg,857.838806152,874.3589477539999,853.809509277,851.79486084
744,1525930599.909532, /muse/eeg,861.062255859,869.523803711,855.0183105469999,844.139221191
745,1525930599.909542, /muse/eeg,862.2710571289999,871.135559082,854.615356445,865.897460938
746,1525930599.90955, /muse/eeg,863.479858398,875.567749023,851.79486084,872.747253418
747,1525930599.909564, /muse/eeg,858.2417602539999,872.344299316,851.79486084,859.85345459
748,1525930599.909573, /muse/eeg,844.139221191,867.1062011719999,855.824157715,844.139221191
749,1525930599.9095821, /muse/eeg,847.765563965,869.523803711,855.421264648,853.406616211
750,1525930599.909591, /muse/eeg,850.1831665039999,874.3589477539999,853.406616211,876.776550293
751,1525930599.9096, /muse/eeg,843.333312988,873.15020752,850.1831665039999,854.615356445
752,1525930599.909611, /muse/eeg,836.0805664060001,870.73260498,847.765563965,826.0073242189999
753,1525930599.9096198, /muse/eeg,832.0512695310001,869.926757812,851.79486084,832.4542236330001
754,1525930599.9096289, /muse/eeg,840.1098632810001,869.926757812,850.1831665039999,861.465209961
755,1525930599.971631, /muse/eeg,837.692321777,867.509155273,850.1831665039999,857.032958984
756,1525930599.971686, /muse/eeg,828.4249267580001,867.912109375,854.615356445,828.0219726560001
757,1525930599.97171, /muse/eeg,834.46887207,869.120849609,851.79486084,830.439575195
758,1525930599.971736, /muse/eeg,835.274719238,868.315002441,849.780212402,848.974365234
759,1525930599.971772, /muse/eeg,829.633728027,868.717956543,850.9890136719999,853.406616211
760,1525930599.971809, /muse/eeg,830.842468262,864.285705566,852.197814941,826.41027832
761,1525930599.971831, /muse/eeg,824.7985229489999,863.479858398,852.6007080080001,811.501831055
762,1525930599.971852, /muse/eeg,821.1721801760001,869.120849609,847.765563965,842.9304199219999
763,1525930599.973617, /muse/eeg,831.245422363,867.912109375,847.362609863,862.2710571289999
764,1525930599.9736528, /muse/eeg,827.619018555,867.1062011719999,850.9890136719999,836.4835205080001
765,1525930599.9736788, /muse/eeg,824.3956298830001,870.73260498,847.765563965,814.32232666
766,1525930599.973705, /muse/eeg,828.8278198239999,870.73260498,844.945068359,826.41027832
767,1525930600.0144, /muse/eeg,827.216125488,868.717956543,847.362609863,847.362609863
768,1525930600.0144289, /muse/eeg,828.4249267580001,866.703308105,848.5714111330001,839.706970215
769,1525930600.014439, /muse/eeg,821.1721801760001,866.3003540039999,849.780212402,811.501831055
770,1525930600.0144482, /muse/eeg,819.560424805,864.688659668,849.780212402,816.7399291989999
771,1525930600.014461, /muse/eeg,830.842468262,861.868103027,845.750915527,854.2124633789999
772,1525930600.014476, /muse/eeg,825.2014770510001,863.8828125,846.1538696289999,858.644714355
773,1525930600.0144858, /muse/eeg,814.725280762,866.3003540039999,849.377319336,821.5750732419999
774,1525930600.014496, /muse/eeg,821.1721801760001,865.091552734,850.58605957,821.9780273439999
775,1525930600.0145051, /muse/eeg,828.8278198239999,865.091552734,850.1831665039999,853.406616211
776,1525930600.014515, /muse/eeg,829.633728027,866.3003540039999,846.556762695,856.630065918
777,1525930600.014525, /muse/eeg,824.3956298830001,865.494506836,850.9890136719999,824.7985229489999
778,1525930600.014534, /muse/eeg,821.9780273439999,867.509155273,851.391967773,807.47253418
779,1525930600.0551, /muse/eeg,832.0512695310001,862.67401123,846.1538696289999,832.0512695310001
780,1525930600.0551279, /muse/eeg,836.4835205080001,863.479858398,849.780212402,854.615356445
781,1525930600.055138, /muse/eeg,821.9780273439999,868.315002441,852.197814941,834.46887207
782,1525930600.055146, /muse/eeg,813.5164794919999,865.091552734,854.615356445,807.0695800780001
783,1525930600.055155, /muse/eeg,816.336975098,865.494506836,853.809509277,825.2014770510001
784,1525930600.055164, /muse/eeg,820.366271973,862.67401123,855.421264648,858.644714355
785,1525930600.055172, /muse/eeg,818.351623535,861.465209961,858.2417602539999,848.5714111330001
786,1525930600.055182, /muse/eeg,813.9194335939999,859.85345459,856.227111816,815.53112793
787,1525930600.055191, /muse/eeg,824.7985229489999,857.435913086,855.0183105469999,820.366271973
788,1525930600.0552, /muse/eeg,828.0219726560001,858.644714355,853.406616211,853.809509277
789,1525930600.0558789, /muse/eeg,821.9780273439999,859.450561523,851.79486084,851.391967773
790,1525930600.055892, /muse/eeg,820.7692260739999,859.0476074219999,848.974365234,817.5457763669999
791,1525930600.096765, /muse/eeg,824.7985229489999,857.838806152,848.5714111330001,816.336975098
792,1525930600.096785, /muse/eeg,823.58972168,859.0476074219999,850.58605957,847.362609863
793,1525930600.0967948, /muse/eeg,814.32232666,861.062255859,849.377319336,855.0183105469999
794,1525930600.096804, /muse/eeg,821.1721801760001,864.688659668,849.377319336,830.842468262
795,1525930600.0968132, /muse/eeg,825.6043701169999,868.315002441,847.362609863,812.7106323239999
796,1525930600.096823, /muse/eeg,819.157531738,868.717956543,845.3479614260001,832.4542236330001
797,1525930600.096832, /muse/eeg,826.41027832,869.523803711,846.556762695,860.659362793
798,1525930600.0968401, /muse/eeg,826.813171387,867.509155273,847.765563965,842.1245117189999
799,1525930600.096849, /muse/eeg,823.186828613,865.897460938,846.9597167969999,809.084228516
800,1525930600.096859, /muse/eeg,820.7692260739999,867.912109375,848.974365234,815.9340820310001
801,1525930600.096868, /muse/eeg,828.0219726560001,864.688659668,854.2124633789999,848.168518066
802,1525930600.0968769, /muse/eeg,836.4835205080001,866.3003540039999,854.615356445,843.73626709
803,1525930600.15795, /muse/eeg,822.783874512,865.091552734,852.197814941,812.307678223
804,1525930600.1579812, /muse/eeg,817.1428833010001,866.3003540039999,851.79486084,817.1428833010001
805,1525930600.157991, /muse/eeg,821.5750732419999,871.135559082,847.765563965,844.139221191
806,1525930600.158001, /muse/eeg,817.1428833010001,870.3296508789999,844.139221191,851.391967773
807,1525930600.15801, /muse/eeg,811.501831055,867.912109375,847.765563965,821.1721801760001
808,1525930600.15802, /muse/eeg,810.695983887,869.120849609,850.9890136719999,807.8754882810001
809,1525930600.15803, /muse/eeg,817.9487304689999,870.3296508789999,850.9890136719999,836.4835205080001
810,1525930600.15804, /muse/eeg,824.3956298830001,867.509155273,853.809509277,857.032958984
811,1525930600.15805, /muse/eeg,830.439575195,871.538452148,854.615356445,836.0805664060001
812,1525930600.15806, /muse/eeg,824.7985229489999,873.15020752,852.6007080080001,814.725280762
813,1525930600.1580698, /muse/eeg,821.1721801760001,869.120849609,853.809509277,831.245422363
814,1525930600.158079, /muse/eeg,824.3956298830001,869.523803711,857.032958984,855.824157715
815,1525930600.199156, /muse/eeg,818.351623535,869.120849609,859.450561523,836.4835205080001
816,1525930600.1991868, /muse/eeg,820.7692260739999,868.717956543,857.435913086,811.0988769530001
817,1525930600.199197, /muse/eeg,818.754577637,868.315002441,854.2124633789999,822.380981445
818,1525930600.199206, /muse/eeg,821.5750732419999,867.912109375,857.032958984,848.974365234
819,1525930600.199215, /muse/eeg,827.619018555,869.523803711,859.85345459,842.1245117189999
820,1525930600.1992302, /muse/eeg,819.157531738,869.523803711,856.227111816,817.9487304689999
821,1525930600.199239, /muse/eeg,816.7399291989999,863.0769042969999,856.227111816,827.619018555
822,1525930600.199249, /muse/eeg,832.4542236330001,860.659362793,856.227111816,855.0183105469999
823,1525930600.199258, /muse/eeg,834.0659179689999,865.494506836,855.0183105469999,855.824157715
824,1525930600.199267, /muse/eeg,819.560424805,863.479858398,857.435913086,832.8571166989999
825,1525930600.199276, /muse/eeg,827.619018555,859.0476074219999,859.0476074219999,830.439575195
826,1525930600.199286, /muse/eeg,829.633728027,859.450561523,854.615356445,850.1831665039999
827,1525930600.24016, /muse/eeg,822.783874512,866.3003540039999,853.003662109,858.2417602539999
828,1525930600.2401779, /muse/eeg,828.0219726560001,866.3003540039999,855.0183105469999,835.274719238
829,1525930600.240187, /muse/eeg,824.7985229489999,864.688659668,853.809509277,819.157531738
830,1525930600.2401972, /muse/eeg,816.7399291989999,867.912109375,852.197814941,835.274719238
831,1525930600.240206, /muse/eeg,821.1721801760001,867.509155273,853.003662109,862.67401123
832,1525930600.240215, /muse/eeg,826.41027832,860.659362793,854.615356445,851.391967773
833,1525930600.2402241, /muse/eeg,825.2014770510001,855.0183105469999,853.809509277,821.5750732419999
834,1525930600.240233, /muse/eeg,817.5457763669999,860.659362793,853.003662109,825.2014770510001
835,1525930600.240242, /muse/eeg,821.9780273439999,868.717956543,851.391967773,858.2417602539999
836,1525930600.240251, /muse/eeg,823.58972168,866.3003540039999,850.58605957,854.2124633789999
837,1525930600.24026, /muse/eeg,825.6043701169999,865.091552734,849.377319336,819.560424805
838,1525930600.240269, /muse/eeg,832.4542236330001,864.285705566,849.780212402,826.41027832
839,1525930600.300819, /muse/eeg,826.41027832,864.688659668,853.406616211,861.465209961
840,1525930600.300849, /muse/eeg,828.8278198239999,864.285705566,853.406616211,861.465209961
841,1525930600.301609, /muse/eeg,827.216125488,865.897460938,853.406616211,826.813171387
842,1525930600.301637, /muse/eeg,823.186828613,868.717956543,853.809509277,819.560424805
843,1525930600.301651, /muse/eeg,831.648376465,867.912109375,852.6007080080001,845.3479614260001
844,1525930600.301664, /muse/eeg,832.8571166989999,865.494506836,859.0476074219999,873.956054688
845,1525930600.301675, /muse/eeg,828.0219726560001,863.8828125,859.85345459,854.615356445
846,1525930600.301687, /muse/eeg,823.9926757810001,867.509155273,853.003662109,825.2014770510001
847,1525930600.301698, /muse/eeg,827.619018555,869.120849609,853.406616211,843.73626709
848,1525930600.30171, /muse/eeg,835.67767334,867.1062011719999,855.0183105469999,865.897460938
849,1525930600.301721, /muse/eeg,833.663024902,865.897460938,853.406616211,848.974365234
850,1525930600.301735, /muse/eeg,832.0512695310001,866.703308105,853.003662109,817.1428833010001
851,1525930600.342377, /muse/eeg,833.2600708010001,865.897460938,856.227111816,830.842468262
852,1525930600.342411, /muse/eeg,832.0512695310001,866.3003540039999,853.003662109,859.0476074219999
853,1525930600.342421, /muse/eeg,829.2307739260001,867.912109375,849.780212402,856.227111816
854,1525930600.34243, /muse/eeg,831.245422363,870.73260498,851.79486084,826.0073242189999
855,1525930600.3424401, /muse/eeg,834.871765137,870.73260498,850.58605957,817.9487304689999
856,1525930600.342452, /muse/eeg,835.274719238,867.1062011719999,851.79486084,851.79486084
857,1525930600.3424609, /muse/eeg,837.2893676760001,868.717956543,851.79486084,862.2710571289999
858,1525930600.34247, /muse/eeg,826.41027832,867.912109375,853.406616211,835.67767334
859,1525930600.342484, /muse/eeg,822.380981445,865.897460938,854.615356445,828.8278198239999
860,1525930600.342493, /muse/eeg,834.871765137,864.285705566,850.9890136719999,845.3479614260001
861,1525930600.3425019, /muse/eeg,835.274719238,873.15020752,849.780212402,856.227111816
862,1525930600.342511, /muse/eeg,839.304016113,877.582397461,851.79486084,844.945068359
863,1525930600.382761, /muse/eeg,832.0512695310001,866.3003540039999,853.406616211,816.336975098
864,1525930600.382791, /muse/eeg,832.4542236330001,870.73260498,852.197814941,835.274719238
865,1525930600.3828, /muse/eeg,838.9011230469999,880.805847168,846.9597167969999,858.644714355
866,1525930600.382808, /muse/eeg,817.1428833010001,872.747253418,844.945068359,832.4542236330001
867,1525930600.383726, /muse/eeg,802.637390137,864.688659668,844.139221191,790.9523925780001
868,1525930600.38378, /muse/eeg,799.0109863280001,868.315002441,848.974365234,789.340637207
869,1525930600.3837929, /muse/eeg,784.505493164,872.344299316,842.52746582,799.0109863280001
870,1525930600.383802, /muse/eeg,770.805847168,870.3296508789999,832.8571166989999,792.967041016
871,1525930600.383811, /muse/eeg,752.2710571289999,865.897460938,841.721618652,753.8828125
872,1525930600.3838198, /muse/eeg,723.663024902,867.912109375,841.3186645510001,722.8571166989999
873,1525930600.383844, /muse/eeg,708.351623535,872.747253418,834.46887207,726.886474609
874,1525930600.38387, /muse/eeg,694.249084473,869.120849609,833.663024902,722.4542236330001
875,1525930600.424113, /muse/eeg,684.175842285,863.479858398,833.2600708010001,704.32232666
876,1525930600.424142, /muse/eeg,691.025634766,856.630065918,832.8571166989999,682.9670410159999
877,1525930600.424151, /muse/eeg,696.666687012,855.0183105469999,832.0512695310001,696.26373291
878,1525930600.42416, /muse/eeg,691.025634766,858.2417602539999,833.2600708010001,708.754577637
879,1525930600.424169, /muse/eeg,686.9963378909999,857.032958984,836.0805664060001,693.0402832030001
880,1525930600.424182, /muse/eeg,702.307678223,856.630065918,835.274719238,682.9670410159999
881,1525930600.424191, /muse/eeg,704.725280762,861.062255859,834.871765137,691.831481934
882,1525930600.424205, /muse/eeg,704.32232666,859.0476074219999,836.4835205080001,714.7985229489999
883,1525930600.4242141, /muse/eeg,714.3956298830001,859.85345459,836.4835205080001,724.0659179689999
884,1525930600.424223, /muse/eeg,713.9926757810001,861.062255859,841.3186645510001,711.5750732419999
885,1525930600.424232, /muse/eeg,725.274719238,854.615356445,843.333312988,721.245422363
886,1525930600.424241, /muse/eeg,743.406616211,855.0183105469999,843.333312988,763.553100586
887,1525930600.4665349, /muse/eeg,755.091552734,857.435913086,844.139221191,777.655700684
888,1525930600.4665642, /muse/eeg,753.0769042969999,859.85345459,843.73626709,747.435913086
889,1525930600.466573, /muse/eeg,757.1062011719999,859.450561523,845.3479614260001,755.494506836
890,1525930600.466581, /muse/eeg,786.520141602,859.450561523,848.974365234,804.6520385739999
891,1525930600.466589, /muse/eeg,809.4871826169999,868.315002441,849.377319336,826.813171387
892,1525930600.466598, /muse/eeg,819.560424805,866.3003540039999,846.1538696289999,821.9780273439999
893,1525930600.467401, /muse/eeg,826.0073242189999,865.494506836,848.168518066,817.5457763669999
894,1525930600.467423, /muse/eeg,823.9926757810001,868.717956543,849.377319336,840.915771484
895,1525930600.467435, /muse/eeg,833.2600708010001,868.315002441,850.1831665039999,873.553100586
896,1525930600.467467, /muse/eeg,838.498168945,872.747253418,850.58605957,865.494506836
897,1525930600.467489, /muse/eeg,844.139221191,874.761901855,846.556762695,837.2893676760001
898,1525930600.467504, /muse/eeg,859.0476074219999,876.373596191,842.1245117189999,851.391967773
899,1525930600.528316, /muse/eeg,861.868103027,877.179504395,845.750915527,888.461547852
900,1525930600.528372, /muse/eeg,862.67401123,878.79119873,848.974365234,885.238098145
901,1525930600.528395, /muse/eeg,874.3589477539999,877.582397461,846.556762695,861.465209961
902,1525930600.528417, /muse/eeg,869.523803711,877.582397461,844.945068359,867.509155273
903,1525930600.528441, /muse/eeg,873.553100586,880.402954102,844.5421142580001,892.490844727
904,1525930600.528464, /muse/eeg,891.282043457,878.79119873,844.5421142580001,909.41394043
905,1525930600.5284882, /muse/eeg,875.970703125,873.956054688,844.5421142580001,889.6703491210001
906,1525930600.5285099, /muse/eeg,869.523803711,869.926757812,848.974365234,869.926757812
907,1525930600.528533, /muse/eeg,883.223449707,872.344299316,850.1831665039999,888.461547852
908,1525930600.528557, /muse/eeg,881.20880127,872.344299316,849.780212402,909.0109863280001
909,1525930600.5285802, /muse/eeg,880.402954102,869.926757812,851.391967773,888.05859375
910,1525930600.5286028, /muse/eeg,882.820495605,868.315002441,852.6007080080001,860.659362793
911,1525930600.56973, /muse/eeg,880.402954102,869.926757812,855.0183105469999,878.388305664
912,1525930600.569759, /muse/eeg,878.79119873,868.315002441,858.2417602539999,907.802185059
913,1525930600.569769, /muse/eeg,878.79119873,865.897460938,856.227111816,896.9230957030001
914,1525930600.569778, /muse/eeg,868.717956543,868.315002441,853.809509277,868.315002441
915,1525930600.569787, /muse/eeg,867.1062011719999,869.120849609,854.615356445,874.3589477539999
916,1525930600.569795, /muse/eeg,890.476196289,867.1062011719999,854.2124633789999,902.564086914
917,1525930600.5698109, /muse/eeg,884.029296875,865.494506836,856.227111816,899.340637207
918,1525930600.5698211, /muse/eeg,864.285705566,865.091552734,853.003662109,868.315002441
919,1525930600.570733, /muse/eeg,871.135559082,868.717956543,849.377319336,865.091552734
920,1525930600.570755, /muse/eeg,866.703308105,870.3296508789999,852.197814941,891.684997559
921,1525930600.570767, /muse/eeg,862.2710571289999,871.94140625,856.630065918,902.564086914
922,1525930600.570784, /muse/eeg,868.717956543,868.717956543,857.435913086,879.597045898
923,1525930600.6126401, /muse/eeg,871.135559082,868.717956543,857.838806152,863.8828125
924,1525930600.6126812, /muse/eeg,877.582397461,869.120849609,858.644714355,881.20880127
925,1525930600.612711, /muse/eeg,881.20880127,867.509155273,858.644714355,900.9523925780001
926,1525930600.612741, /muse/eeg,879.194152832,869.120849609,856.630065918,886.446899414
927,1525930600.612769, /muse/eeg,867.912109375,865.091552734,855.0183105469999,859.0476074219999
928,1525930600.612798, /muse/eeg,861.062255859,865.494506836,857.435913086,882.417602539
929,1525930600.6128259, /muse/eeg,872.747253418,865.494506836,859.0476074219999,912.234436035
930,1525930600.612854, /muse/eeg,873.553100586,868.315002441,855.421264648,888.05859375
931,1525930600.6128821, /muse/eeg,874.761901855,869.926757812,853.809509277,861.868103027
932,1525930600.61291, /muse/eeg,869.120849609,868.717956543,856.630065918,870.3296508789999
933,1525930600.612937, /muse/eeg,869.926757812,869.523803711,859.450561523,896.1171875
934,1525930600.612965, /muse/eeg,876.776550293,869.926757812,859.0476074219999,902.161193848
935,1525930600.6534722, /muse/eeg,864.688659668,870.3296508789999,857.032958984,870.3296508789999
936,1525930600.653496, /muse/eeg,863.0769042969999,869.120849609,854.615356445,854.615356445
937,1525930600.653509, /muse/eeg,871.135559082,866.3003540039999,852.197814941,884.432250977
938,1525930600.653523, /muse/eeg,873.15020752,866.3003540039999,854.615356445,896.9230957030001
939,1525930600.6535358, /muse/eeg,860.256408691,867.509155273,857.838806152,866.703308105
940,1525930600.653549, /muse/eeg,859.450561523,866.3003540039999,855.421264648,856.227111816
941,1525930600.6535609, /muse/eeg,870.73260498,868.315002441,854.615356445,875.970703125
942,1525930600.653573, /muse/eeg,865.494506836,875.164855957,856.630065918,895.714294434
943,1525930600.653584, /muse/eeg,850.9890136719999,875.970703125,855.824157715,891.282043457
944,1525930600.653595, /muse/eeg,851.391967773,870.3296508789999,855.421264648,850.9890136719999
945,1525930600.654447, /muse/eeg,858.2417602539999,869.523803711,857.032958984,854.2124633789999
946,1525930600.654463, /muse/eeg,853.809509277,871.94140625,852.6007080080001,882.014648438
947,1525930600.735653, /muse/eeg,850.9890136719999,871.94140625,854.615356445,886.84979248
948,1525930600.735703, /muse/eeg,850.1831665039999,872.747253418,854.615356445,856.630065918
949,1525930600.735721, /muse/eeg,855.421264648,873.553100586,849.780212402,846.9597167969999
950,1525930600.735739, /muse/eeg,859.85345459,872.747253418,851.79486084,885.6410522460001
951,1525930600.735758, /muse/eeg,855.421264648,868.315002441,853.809509277,895.311340332
952,1525930600.735776, /muse/eeg,851.79486084,859.85345459,855.0183105469999,855.0183105469999
953,1525930600.735795, /muse/eeg,846.9597167969999,863.0769042969999,855.0183105469999,843.333312988
954,1525930600.735814, /muse/eeg,844.945068359,869.926757812,855.0183105469999,868.315002441
955,1525930600.735831, /muse/eeg,853.406616211,866.703308105,856.227111816,871.94140625
956,1525930600.73585, /muse/eeg,850.9890136719999,864.688659668,853.809509277,849.780212402
957,1525930600.735868, /muse/eeg,844.139221191,868.315002441,850.58605957,837.692321777
958,1525930600.7358859, /muse/eeg,844.5421142580001,869.120849609,850.9890136719999,861.868103027
959,1525930600.756951, /muse/eeg,853.003662109,867.1062011719999,848.974365234,876.776550293
960,1525930600.756983, /muse/eeg,846.1538696289999,866.703308105,848.5714111330001,855.824157715
961,1525930600.756992, /muse/eeg,835.274719238,867.509155273,853.809509277,833.663024902
962,1525930600.757, /muse/eeg,846.1538696289999,867.509155273,850.9890136719999,846.556762695
963,1525930600.757009, /muse/eeg,851.79486084,867.509155273,850.9890136719999,870.3296508789999
964,1525930600.757017, /muse/eeg,843.73626709,868.315002441,855.421264648,870.3296508789999
965,1525930600.757026, /muse/eeg,835.274719238,865.897460938,857.435913086,843.333312988
966,1525930600.757035, /muse/eeg,831.245422363,865.494506836,857.435913086,836.0805664060001
967,1525930600.7570438, /muse/eeg,841.3186645510001,867.912109375,853.003662109,865.091552734
968,1525930600.757053, /muse/eeg,854.2124633789999,871.94140625,854.2124633789999,884.029296875
969,1525930600.7570632, /muse/eeg,849.377319336,874.3589477539999,856.630065918,850.1831665039999
970,1525930600.7570732, /muse/eeg,856.630065918,875.567749023,854.615356445,839.706970215
971,1525930600.7983902, /muse/eeg,864.688659668,871.538452148,854.615356445,869.120849609
972,1525930600.798458, /muse/eeg,857.032958984,872.747253418,855.421264648,885.238098145
973,1525930600.798511, /muse/eeg,861.465209961,879.194152832,857.032958984,875.164855957
974,1525930600.798541, /muse/eeg,861.062255859,875.567749023,858.644714355,848.5714111330001
975,1525930600.798571, /muse/eeg,859.450561523,872.747253418,855.824157715,859.0476074219999
976,1525930600.7986019, /muse/eeg,863.8828125,868.717956543,856.630065918,893.6996459960001
977,1525930600.798634, /muse/eeg,855.0183105469999,868.315002441,859.450561523,876.776550293
978,1525930600.798664, /muse/eeg,845.3479614260001,869.926757812,857.838806152,842.9304199219999
979,1525930600.798694, /muse/eeg,852.6007080080001,867.509155273,857.435913086,849.780212402
980,1525930600.798725, /muse/eeg,853.003662109,871.538452148,861.062255859,865.897460938
981,1525930600.798761, /muse/eeg,841.3186645510001,871.135559082,861.465209961,858.2417602539999
982,1525930600.798792, /muse/eeg,838.0952148439999,863.8828125,860.659362793,831.245422363
983,1525930600.859591, /muse/eeg,848.974365234,866.3003540039999,858.644714355,826.0073242189999
984,1525930600.85965, /muse/eeg,844.945068359,870.3296508789999,854.615356445,845.750915527
985,1525930600.859675, /muse/eeg,828.8278198239999,870.3296508789999,855.824157715,853.809509277
986,1525930600.85971, /muse/eeg,832.8571166989999,866.3003540039999,857.838806152,838.9011230469999
987,1525930600.859735, /muse/eeg,833.2600708010001,865.897460938,855.421264648,826.41027832
988,1525930600.859761, /muse/eeg,833.2600708010001,869.926757812,854.615356445,847.362609863
989,1525930600.859785, /muse/eeg,837.2893676760001,870.3296508789999,852.6007080080001,869.120849609
990,1525930600.859809, /muse/eeg,841.3186645510001,866.3003540039999,850.9890136719999,847.362609863
991,1525930600.859833, /muse/eeg,836.0805664060001,861.868103027,852.6007080080001,819.157531738
992,1525930600.85986, /muse/eeg,828.4249267580001,866.703308105,851.79486084,835.67767334
993,1525930600.859885, /muse/eeg,835.274719238,867.912109375,855.0183105469999,869.926757812
994,1525930600.859909, /muse/eeg,849.377319336,867.912109375,860.659362793,861.465209961
995,1525930600.90081, /muse/eeg,845.750915527,872.344299316,853.003662109,834.0659179689999
996,1525930600.900835, /muse/eeg,843.333312988,875.164855957,846.556762695,837.2893676760001
997,1525930600.901929, /muse/eeg,851.391967773,873.956054688,848.168518066,857.838806152
998,1525930600.901952, /muse/eeg,853.003662109,871.94140625,850.58605957,858.644714355
999,1525930600.901967, /muse/eeg,848.974365234,870.73260498,848.974365234,838.0952148439999
1000,1525930600.901982, /muse/eeg,841.721618652,868.315002441,847.362609863,828.8278198239999
1001,1525930600.9019961, /muse/eeg,843.73626709,868.717956543,849.377319336,846.556762695
1002,1525930600.902011, /muse/eeg,838.498168945,869.926757812,848.5714111330001,861.868103027
1003,1525930600.902027, /muse/eeg,844.5421142580001,872.747253418,850.1831665039999,838.9011230469999
1004,1525930600.902041, /muse/eeg,844.5421142580001,875.567749023,851.391967773,832.0512695310001
1005,1525930600.902057, /muse/eeg,838.0952148439999,872.747253418,851.391967773,855.824157715
1006,1525930600.9020731, /muse/eeg,852.197814941,871.135559082,851.79486084,873.553100586
1007,1525930600.94295, /muse/eeg,853.003662109,874.3589477539999,854.2124633789999,852.197814941
1008,1525930600.94298, /muse/eeg,839.706970215,871.538452148,857.032958984,827.619018555
1009,1525930600.94299, /muse/eeg,836.0805664060001,871.538452148,849.377319336,844.5421142580001
1010,1525930600.9429991, /muse/eeg,846.556762695,867.912109375,845.750915527,870.73260498
1011,1525930600.943008, /muse/eeg,853.809509277,863.8828125,852.6007080080001,871.538452148
1012,1525930600.943018, /muse/eeg,839.304016113,875.164855957,851.391967773,825.6043701169999
1013,1525930600.943028, /muse/eeg,839.304016113,872.344299316,853.003662109,824.7985229489999
1014,1525930600.943038, /muse/eeg,857.838806152,868.717956543,855.421264648,865.091552734
1015,1525930600.943048, /muse/eeg,853.809509277,877.179504395,853.003662109,876.373596191
1016,1525930600.943058, /muse/eeg,852.6007080080001,873.15020752,855.824157715,859.0476074219999
1017,1525930600.943067, /muse/eeg,864.688659668,873.956054688,855.421264648,857.838806152
1018,1525930600.9430768, /muse/eeg,872.747253418,875.567749023,855.421264648,884.432250977
1019,1525930600.983406, /muse/eeg,864.688659668,871.135559082,859.450561523,894.505493164
1020,1525930600.9834368, /muse/eeg,858.2417602539999,871.538452148,863.479858398,872.747253418
1021,1525930600.9834461, /muse/eeg,863.479858398,873.15020752,862.67401123,856.227111816
1022,1525930600.9834552, /muse/eeg,877.582397461,874.3589477539999,860.256408691,895.714294434
1023,1525930600.984175, /muse/eeg,887.252746582,875.164855957,859.85345459,918.278381348
1024,1525930600.9841962, /muse/eeg,883.223449707,873.15020752,859.85345459,895.714294434
1025,1525930600.984207, /muse/eeg,880.402954102,871.94140625,863.479858398,877.582397461
1026,1525930600.984218, /muse/eeg,884.835144043,871.94140625,865.897460938,886.043945312
1027,1525930600.9842288, /muse/eeg,888.864440918,875.164855957,867.912109375,923.113525391
1028,1525930600.984239, /muse/eeg,882.014648438,873.956054688,868.315002441,919.8901367189999
1029,1525930600.98425, /muse/eeg,875.164855957,871.538452148,865.897460938,881.611694336
1030,1525930600.984259, /muse/eeg,877.985351562,878.79119873,864.688659668,883.223449707
1031,1525930601.045465, /muse/eeg,881.20880127,884.029296875,859.0476074219999,901.7582397460001
1032,1525930601.045556, /muse/eeg,881.611694336,877.985351562,858.644714355,908.608032227
1033,1525930601.045599, /muse/eeg,890.476196289,873.553100586,860.256408691,890.073242188
1034,1525930601.045644, /muse/eeg,884.029296875,876.776550293,861.868103027,879.194152832
1035,1525930601.045687, /muse/eeg,874.761901855,879.194152832,861.465209961,899.743591309
1036,1525930601.04573, /muse/eeg,882.820495605,874.3589477539999,858.2417602539999,912.234436035
1037,1525930601.0457711, /muse/eeg,875.164855957,873.15020752,857.838806152,893.6996459960001
1038,1525930601.045813, /muse/eeg,876.373596191,877.985351562,859.0476074219999,868.315002441
1039,1525930601.045862, /muse/eeg,881.20880127,875.970703125,860.256408691,889.6703491210001
1040,1525930601.045904, /muse/eeg,877.582397461,875.567749023,860.659362793,915.054931641
1041,1525930601.0459461, /muse/eeg,874.3589477539999,874.3589477539999,861.868103027,892.087890625
1042,1525930601.045987, /muse/eeg,870.73260498,874.3589477539999,858.2417602539999,867.912109375
1043,1525930601.086539, /muse/eeg,872.344299316,872.344299316,855.421264648,876.776550293
1044,1525930601.086571, /muse/eeg,877.582397461,871.538452148,855.421264648,897.7289428710001
1045,1525930601.08658, /muse/eeg,871.135559082,871.538452148,854.2124633789999,887.252746582
1046,1525930601.086589, /muse/eeg,861.868103027,872.344299316,853.809509277,851.391967773
1047,1525930601.0866039, /muse/eeg,859.450561523,870.3296508789999,857.435913086,856.227111816
1048,1525930601.0866132, /muse/eeg,857.032958984,867.1062011719999,857.838806152,888.05859375
1049,1525930601.087606, /muse/eeg,861.465209961,868.717956543,857.435913086,888.864440918
1050,1525930601.087632, /muse/eeg,863.0769042969999,868.717956543,858.644714355,862.2710571289999
1051,1525930601.087646, /muse/eeg,857.838806152,864.688659668,859.450561523,850.9890136719999
1052,1525930601.087659, /muse/eeg,859.0476074219999,863.8828125,859.0476074219999,874.3589477539999
1053,1525930601.087673, /muse/eeg,864.688659668,869.926757812,860.659362793,898.131896973
1054,1525930601.087688, /muse/eeg,857.838806152,871.135559082,861.062255859,877.582397461
1055,1525930601.1291401, /muse/eeg,852.197814941,866.3003540039999,860.659362793,849.377319336
1056,1525930601.129163, /muse/eeg,848.974365234,865.091552734,861.465209961,863.8828125
1057,1525930601.129173, /muse/eeg,847.362609863,869.120849609,861.868103027,883.626403809
1058,1525930601.129183, /muse/eeg,852.197814941,869.523803711,861.465209961,869.523803711
1059,1525930601.1292, /muse/eeg,849.780212402,861.465209961,859.85345459,844.5421142580001
1060,1525930601.129209, /muse/eeg,849.377319336,859.0476074219999,859.85345459,852.6007080080001
1061,1525930601.1292179, /muse/eeg,855.421264648,870.73260498,859.85345459,880.0
1062,1525930601.129231, /muse/eeg,860.256408691,874.761901855,857.032958984,879.194152832
1063,1525930601.12924, /muse/eeg,860.659362793,868.315002441,853.406616211,859.85345459
1064,1525930601.129249, /muse/eeg,857.032958984,869.120849609,856.630065918,857.838806152
1065,1525930601.1292589, /muse/eeg,850.58605957,881.20880127,857.032958984,864.688659668
1066,1525930601.129268, /muse/eeg,856.227111816,882.820495605,854.615356445,878.79119873
1067,1525930601.190066, /muse/eeg,862.2710571289999,879.194152832,851.79486084,867.1062011719999
1068,1525930601.1901028, /muse/eeg,859.0476074219999,880.402954102,848.168518066,843.333312988
1069,1525930601.190116, /muse/eeg,869.120849609,879.597045898,848.168518066,874.3589477539999
1070,1525930601.1901288, /muse/eeg,872.344299316,873.553100586,852.6007080080001,893.296691895
1071,1525930601.190142, /muse/eeg,852.197814941,871.538452148,856.227111816,860.256408691
1072,1525930601.190156, /muse/eeg,855.824157715,874.761901855,853.003662109,844.139221191
1073,1525930601.190168, /muse/eeg,862.67401123,876.776550293,848.974365234,867.1062011719999
1074,1525930601.190182, /muse/eeg,860.659362793,873.956054688,852.197814941,901.7582397460001
1075,1525930601.190964, /muse/eeg,869.523803711,867.509155273,853.809509277,887.252746582
1076,1525930601.190988, /muse/eeg,864.285705566,870.73260498,850.9890136719999,846.9597167969999
1077,1525930601.191009, /muse/eeg,862.67401123,875.164855957,851.391967773,859.85345459
1078,1525930601.191025, /muse/eeg,870.3296508789999,875.164855957,854.2124633789999,886.84979248
1079,1525930601.2314222, /muse/eeg,870.73260498,876.373596191,855.824157715,887.655700684
1080,1525930601.231476, /muse/eeg,862.67401123,873.956054688,857.032958984,855.0183105469999
1081,1525930601.231509, /muse/eeg,862.2710571289999,873.956054688,855.421264648,853.809509277
1082,1525930601.231533, /muse/eeg,862.67401123,873.956054688,855.0183105469999,888.864440918
1083,1525930601.231556, /muse/eeg,870.3296508789999,871.135559082,855.824157715,886.84979248
1084,1525930601.2315779, /muse/eeg,870.3296508789999,871.538452148,855.421264648,869.523803711
1085,1525930601.231601, /muse/eeg,859.0476074219999,873.15020752,856.630065918,849.780212402
1086,1525930601.2316241, /muse/eeg,857.838806152,871.94140625,856.227111816,853.406616211
1087,1525930601.231646, /muse/eeg,867.509155273,872.344299316,854.615356445,880.805847168
1088,1525930601.231669, /muse/eeg,869.523803711,873.15020752,856.630065918,861.465209961
1089,1525930601.231692, /muse/eeg,846.9597167969999,871.135559082,857.838806152,832.4542236330001
1090,1525930601.231714, /muse/eeg,848.974365234,870.3296508789999,856.227111816,846.1538696289999
1091,1525930601.272302, /muse/eeg,861.465209961,869.120849609,855.824157715,871.135559082
1092,1525930601.272332, /muse/eeg,855.421264648,869.523803711,856.630065918,886.446899414
1093,1525930601.272341, /muse/eeg,857.838806152,868.315002441,858.2417602539999,860.659362793
1094,1525930601.27235, /muse/eeg,855.824157715,865.897460938,861.465209961,854.615356445
1095,1525930601.272359, /muse/eeg,856.630065918,866.703308105,861.062255859,879.597045898
1096,1525930601.272368, /muse/eeg,861.868103027,864.285705566,857.032958984,873.553100586
1097,1525930601.272377, /muse/eeg,849.377319336,864.285705566,857.032958984,846.9597167969999
1098,1525930601.2723858, /muse/eeg,846.556762695,863.479858398,858.2417602539999,839.304016113
1099,1525930601.272395, /muse/eeg,853.406616211,866.3003540039999,857.838806152,866.3003540039999
1100,1525930601.272404, /muse/eeg,860.659362793,870.3296508789999,857.435913086,876.373596191
1101,1525930601.272973, /muse/eeg,848.974365234,867.509155273,855.824157715,855.824157715
1102,1525930601.272985, /muse/eeg,838.498168945,865.494506836,855.0183105469999,831.648376465
1103,1525930601.313885, /muse/eeg,853.406616211,868.717956543,858.2417602539999,851.79486084
1104,1525930601.313952, /muse/eeg,852.6007080080001,869.926757812,860.256408691,879.194152832
1105,1525930601.313982, /muse/eeg,853.003662109,867.509155273,858.2417602539999,868.717956543
1106,1525930601.3140118, /muse/eeg,854.2124633789999,867.912109375,854.2124633789999,834.46887207
1107,1525930601.314055, /muse/eeg,853.003662109,867.509155273,852.197814941,835.67767334
1108,1525930601.314102, /muse/eeg,843.73626709,867.1062011719999,850.58605957,869.926757812
1109,1525930601.314132, /muse/eeg,845.750915527,865.897460938,851.391967773,867.912109375
1110,1525930601.3141608, /muse/eeg,838.9011230469999,866.703308105,851.391967773,836.0805664060001
1111,1525930601.3141901, /muse/eeg,821.5750732419999,871.538452148,850.1831665039999,817.9487304689999
1112,1525930601.314219, /muse/eeg,833.2600708010001,871.538452148,850.1831665039999,846.556762695
1113,1525930601.314249, /muse/eeg,841.721618652,867.912109375,847.765563965,863.0769042969999
1114,1525930601.3142788, /muse/eeg,836.886474609,866.703308105,849.377319336,833.663024902
1115,1525930601.3551311, /muse/eeg,841.3186645510001,866.703308105,855.421264648,830.0366210939999
1116,1525930601.355149, /muse/eeg,846.556762695,864.285705566,858.644714355,869.926757812
1117,1525930601.355159, /muse/eeg,852.197814941,865.091552734,858.2417602539999,882.014648438
1118,1525930601.355169, /muse/eeg,845.3479614260001,865.091552734,859.450561523,845.3479614260001
1119,1525930601.3551779, /muse/eeg,840.1098632810001,862.67401123,855.824157715,827.216125488
1120,1525930601.35519, /muse/eeg,857.032958984,863.8828125,853.003662109,846.1538696289999
1121,1525930601.3552, /muse/eeg,848.974365234,867.509155273,850.58605957,867.912109375
1122,1525930601.3552089, /muse/eeg,842.1245117189999,869.926757812,850.1831665039999,858.2417602539999
1123,1525930601.355218, /muse/eeg,840.5128173830001,871.94140625,853.003662109,828.8278198239999
1124,1525930601.355227, /muse/eeg,839.706970215,870.73260498,852.6007080080001,834.0659179689999
1125,1525930601.355241, /muse/eeg,846.9597167969999,871.538452148,851.391967773,873.553100586
1126,1525930601.35525, /muse/eeg,855.824157715,873.15020752,851.391967773,876.776550293
1127,1525930601.4166038, /muse/eeg,853.809509277,871.135559082,850.1831665039999,838.498168945
1128,1525930601.416635, /muse/eeg,846.9597167969999,868.717956543,852.6007080080001,840.1098632810001
1129,1525930601.4166448, /muse/eeg,846.556762695,869.926757812,855.0183105469999,859.85345459
1130,1525930601.4166539, /muse/eeg,844.945068359,872.344299316,853.809509277,874.3589477539999
1131,1525930601.4166632, /muse/eeg,834.46887207,871.135559082,853.809509277,854.2124633789999
1132,1525930601.416673, /muse/eeg,838.9011230469999,866.3003540039999,853.003662109,825.6043701169999
1133,1525930601.416682, /muse/eeg,843.73626709,868.717956543,854.2124633789999,842.1245117189999
1134,1525930601.416693, /muse/eeg,834.46887207,873.553100586,855.421264648,875.164855957
1135,1525930601.416703, /muse/eeg,832.4542236330001,869.523803711,857.032958984,857.838806152
1136,1525930601.416713, /muse/eeg,831.245422363,871.135559082,856.227111816,823.9926757810001
1137,1525930601.416722, /muse/eeg,833.2600708010001,874.761901855,853.809509277,831.245422363
1138,1525930601.416732, /muse/eeg,838.0952148439999,871.135559082,855.0183105469999,864.285705566
1139,1525930601.457186, /muse/eeg,829.2307739260001,874.761901855,850.9890136719999,858.644714355
1140,1525930601.4572759, /muse/eeg,833.663024902,877.985351562,845.750915527,821.5750732419999
1141,1525930601.45732, /muse/eeg,840.915771484,872.747253418,849.780212402,832.0512695310001
1142,1525930601.4573631, /muse/eeg,828.8278198239999,875.567749023,854.2124633789999,858.2417602539999
1143,1525930601.457406, /muse/eeg,821.9780273439999,873.956054688,852.197814941,859.85345459
1144,1525930601.457448, /muse/eeg,833.2600708010001,867.912109375,848.974365234,836.4835205080001
1145,1525930601.45749, /muse/eeg,844.139221191,866.703308105,850.58605957,823.186828613
1146,1525930601.457532, /muse/eeg,847.765563965,868.717956543,852.197814941,855.0183105469999
1147,1525930601.4575849, /muse/eeg,854.615356445,869.120849609,855.421264648,869.926757812
1148,1525930601.457628, /muse/eeg,849.780212402,862.67401123,856.227111816,844.945068359
1149,1525930601.45767, /muse/eeg,842.1245117189999,866.3003540039999,853.003662109,821.1721801760001
1150,1525930601.457714, /muse/eeg,852.6007080080001,871.538452148,851.391967773,849.377319336
1151,1525930601.519232, /muse/eeg,850.9890136719999,871.538452148,852.197814941,877.179504395
1152,1525930601.51926, /muse/eeg,842.1245117189999,875.970703125,847.362609863,850.9890136719999
1153,1525930601.520065, /muse/eeg,838.498168945,874.761901855,847.362609863,828.8278198239999
1154,1525930601.520086, /muse/eeg,840.5128173830001,873.956054688,852.6007080080001,840.5128173830001
1155,1525930601.520099, /muse/eeg,852.197814941,875.567749023,850.58605957,873.15020752
1156,1525930601.520113, /muse/eeg,858.644714355,872.344299316,848.5714111330001,861.868103027
1157,1525930601.520125, /muse/eeg,851.391967773,869.523803711,850.9890136719999,826.813171387
1158,1525930601.5201359, /muse/eeg,855.0183105469999,870.73260498,850.58605957,837.692321777
1159,1525930601.520148, /muse/eeg,866.3003540039999,867.1062011719999,850.1831665039999,866.3003540039999
1160,1525930601.52016, /muse/eeg,866.3003540039999,863.0769042969999,852.6007080080001,874.3589477539999
1161,1525930601.5201712, /muse/eeg,850.9890136719999,867.912109375,852.197814941,851.391967773
1162,1525930601.5201821, /muse/eeg,850.9890136719999,869.120849609,853.003662109,832.4542236330001
1163,1525930601.560543, /muse/eeg,865.091552734,869.120849609,853.406616211,862.2710571289999
1164,1525930601.5605721, /muse/eeg,863.0769042969999,871.538452148,852.6007080080001,882.014648438
1165,1525930601.560581, /muse/eeg,856.227111816,869.523803711,850.1831665039999,854.2124633789999
1166,1525930601.56059, /muse/eeg,857.838806152,863.8828125,848.974365234,828.8278198239999
1167,1525930601.560603, /muse/eeg,853.809509277,865.091552734,848.168518066,835.67767334
1168,1525930601.560612, /muse/eeg,852.197814941,868.315002441,847.765563965,869.120849609
1169,1525930601.560621, /muse/eeg,849.780212402,868.717956543,851.391967773,857.838806152
1170,1525930601.56063, /muse/eeg,850.1831665039999,868.315002441,853.809509277,833.2600708010001
1171,1525930601.5606391, /muse/eeg,853.406616211,865.494506836,854.2124633789999,847.765563965
1172,1525930601.560648, /muse/eeg,857.032958984,866.703308105,855.421264648,869.926757812
1173,1525930601.560657, /muse/eeg,855.421264648,866.703308105,855.0183105469999,869.926757812
1174,1525930601.560666, /muse/eeg,847.765563965,862.67401123,855.421264648,838.0952148439999
1175,1525930601.60094, /muse/eeg,850.58605957,862.2710571289999,858.644714355,834.871765137
1176,1525930601.600964, /muse/eeg,863.479858398,865.494506836,855.824157715,865.494506836
1177,1525930601.6009789, /muse/eeg,856.630065918,867.509155273,854.2124633789999,875.567749023
1178,1525930601.600999, /muse/eeg,845.3479614260001,864.285705566,855.421264648,850.9890136719999
1179,1525930601.6019561, /muse/eeg,846.556762695,861.062255859,853.809509277,822.783874512
1180,1525930601.601975, /muse/eeg,844.945068359,862.2710571289999,854.2124633789999,843.333312988
1181,1525930601.601991, /muse/eeg,846.9597167969999,866.703308105,856.630065918,871.135559082
1182,1525930601.602006, /muse/eeg,856.630065918,861.465209961,857.838806152,865.494506836
1183,1525930601.602021, /muse/eeg,852.197814941,858.2417602539999,856.227111816,838.0952148439999
1184,1525930601.602036, /muse/eeg,843.333312988,867.912109375,853.003662109,839.304016113
1185,1525930601.602052, /muse/eeg,848.5714111330001,868.315002441,852.6007080080001,868.315002441
1186,1525930601.602067, /muse/eeg,844.945068359,867.1062011719999,853.003662109,851.79486084
1187,1525930601.642193, /muse/eeg,846.1538696289999,869.523803711,853.003662109,825.6043701169999
1188,1525930601.642249, /muse/eeg,849.780212402,871.538452148,852.6007080080001,839.304016113
1189,1525930601.642272, /muse/eeg,850.1831665039999,868.315002441,853.003662109,869.120849609
1190,1525930601.642295, /muse/eeg,851.79486084,863.8828125,854.615356445,877.582397461
1191,1525930601.642318, /muse/eeg,850.1831665039999,863.0769042969999,857.838806152,846.9597167969999
1192,1525930601.642341, /muse/eeg,853.406616211,860.659362793,858.644714355,824.7985229489999
1193,1525930601.642365, /muse/eeg,859.0476074219999,857.032958984,858.2417602539999,856.227111816
1194,1525930601.642388, /muse/eeg,856.227111816,854.2124633789999,857.838806152,871.135559082
1195,1525930601.642412, /muse/eeg,855.0183105469999,860.659362793,853.809509277,848.5714111330001
1196,1525930601.642434, /muse/eeg,840.1098632810001,866.3003540039999,854.2124633789999,837.2893676760001
1197,1525930601.642457, /muse/eeg,844.139221191,861.465209961,854.2124633789999,859.85345459
1198,1525930601.6424801, /muse/eeg,861.465209961,862.2710571289999,853.003662109,881.20880127
1199,1525930601.703161, /muse/eeg,842.52746582,864.688659668,850.1831665039999,848.5714111330001
1200,1525930601.703193, /muse/eeg,845.750915527,863.479858398,848.5714111330001,820.7692260739999
1201,1525930601.703203, /muse/eeg,855.824157715,864.285705566,848.974365234,855.421264648
1202,1525930601.703212, /muse/eeg,857.838806152,865.897460938,846.556762695,877.985351562
1203,1525930601.703222, /muse/eeg,863.0769042969999,866.3003540039999,846.9597167969999,862.67401123
1204,1525930601.7032301, /muse/eeg,849.780212402,862.2710571289999,852.197814941,835.274719238
1205,1525930601.704143, /muse/eeg,851.391967773,860.256408691,855.824157715,848.5714111330001
1206,1525930601.704165, /muse/eeg,866.703308105,866.3003540039999,857.032958984,871.135559082
1207,1525930601.7041779, /muse/eeg,861.062255859,873.15020752,857.838806152,861.868103027
1208,1525930601.704191, /muse/eeg,853.003662109,869.120849609,855.421264648,841.721618652
1209,1525930601.704201, /muse/eeg,852.6007080080001,868.717956543,852.197814941,830.842468262
1210,1525930601.704211, /muse/eeg,843.73626709,871.538452148,853.003662109,843.333312988
1211,1525930601.7457051, /muse/eeg,835.67767334,869.120849609,852.6007080080001,866.3003540039999
1212,1525930601.745836, /muse/eeg,836.4835205080001,865.494506836,853.003662109,855.0183105469999
1213,1525930601.745908, /muse/eeg,841.721618652,868.315002441,854.2124633789999,828.4249267580001
1214,1525930601.7459722, /muse/eeg,844.139221191,872.747253418,854.615356445,844.139221191
1215,1525930601.7460349, /muse/eeg,846.556762695,871.94140625,854.615356445,872.344299316
1216,1525930601.7461052, /muse/eeg,843.73626709,870.73260498,855.421264648,858.2417602539999
1217,1525930601.746168, /muse/eeg,855.421264648,871.538452148,857.435913086,830.0366210939999
1218,1525930601.746227, /muse/eeg,857.435913086,877.179504395,857.838806152,832.8571166989999
1219,1525930601.746286, /muse/eeg,847.362609863,876.373596191,857.032958984,870.73260498
1220,1525930601.7463472, /muse/eeg,861.062255859,869.926757812,858.644714355,877.179504395
1221,1525930601.746408, /muse/eeg,849.780212402,863.0769042969999,859.0476074219999,831.245422363
1222,1525930601.74647, /muse/eeg,838.0952148439999,865.897460938,855.824157715,819.560424805
1223,1525930601.787193, /muse/eeg,854.615356445,871.94140625,859.85345459,856.630065918
1224,1525930601.787211, /muse/eeg,861.465209961,865.091552734,865.091552734,865.494506836
1225,1525930601.787224, /muse/eeg,855.824157715,867.509155273,859.85345459,838.9011230469999
1226,1525930601.787234, /muse/eeg,846.556762695,870.3296508789999,857.435913086,823.186828613
1227,1525930601.787243, /muse/eeg,845.750915527,868.315002441,860.256408691,857.032958984
1228,1525930601.787252, /muse/eeg,850.9890136719999,864.688659668,861.465209961,878.388305664
1229,1525930601.787262, /muse/eeg,853.003662109,863.0769042969999,860.659362793,846.556762695
1230,1525930601.787271, /muse/eeg,847.765563965,869.523803711,857.032958984,826.0073242189999
1231,1525930601.787951, /muse/eeg,847.362609863,870.3296508789999,853.406616211,837.692321777
1232,1525930601.7879632, /muse/eeg,848.168518066,870.3296508789999,852.197814941,873.956054688
1233,1525930601.7879732, /muse/eeg,841.721618652,869.926757812,854.615356445,862.67401123
1234,1525930601.787984, /muse/eeg,847.765563965,868.717956543,856.227111816,827.216125488
1235,1525930601.848834, /muse/eeg,855.0183105469999,868.315002441,856.630065918,846.1538696289999
1236,1525930601.84885, /muse/eeg,855.824157715,866.3003540039999,859.0476074219999,873.15020752
1237,1525930601.84886, /muse/eeg,848.5714111330001,868.717956543,859.85345459,853.809509277
1238,1525930601.84887, /muse/eeg,841.3186645510001,871.135559082,855.824157715,826.41027832
1239,1525930601.848881, /muse/eeg,849.377319336,869.120849609,858.644714355,831.648376465
1240,1525930601.848891, /muse/eeg,862.2710571289999,864.285705566,860.256408691,868.717956543
1241,1525930601.848901, /muse/eeg,857.032958984,865.897460938,854.2124633789999,874.761901855
1242,1525930601.848915, /muse/eeg,844.139221191,872.344299316,853.003662109,832.0512695310001
1243,1525930601.848925, /muse/eeg,849.780212402,869.120849609,853.406616211,818.351623535
1244,1525930601.848935, /muse/eeg,853.406616211,867.509155273,853.406616211,847.362609863
1245,1525930601.848945, /muse/eeg,843.73626709,867.509155273,853.003662109,865.494506836
1246,1525930601.8489552, /muse/eeg,833.2600708010001,868.315002441,853.406616211,841.3186645510001
1247,1525930601.90959, /muse/eeg,846.556762695,866.703308105,855.0183105469999,816.7399291989999
1248,1525930601.909685, /muse/eeg,839.304016113,864.285705566,855.824157715,845.750915527
1249,1525930601.909745, /muse/eeg,832.0512695310001,864.285705566,854.2124633789999,877.985351562
1250,1525930601.9098089, /muse/eeg,853.003662109,867.912109375,853.003662109,853.406616211
1251,1525930601.909852, /muse/eeg,849.377319336,866.703308105,856.227111816,809.8901367189999
1252,1525930601.909895, /muse/eeg,840.915771484,861.465209961,856.630065918,819.9633789060001
1253,1525930601.909936, /muse/eeg,837.2893676760001,869.523803711,850.1831665039999,860.256408691
1254,1525930601.909987, /muse/eeg,842.1245117189999,867.912109375,852.197814941,860.659362793
1255,1525930601.9100301, /muse/eeg,840.915771484,857.838806152,855.421264648,819.560424805
1256,1525930601.910073, /muse/eeg,843.333312988,859.0476074219999,851.391967773,821.1721801760001
1257,1525930601.912551, /muse/eeg,847.765563965,863.0769042969999,853.406616211,856.227111816
1258,1525930601.912623, /muse/eeg,844.139221191,864.285705566,855.0183105469999,869.926757812
1259,1525930601.933117, /muse/eeg,849.377319336,861.465209961,855.421264648,835.67767334
1260,1525930601.933134, /muse/eeg,850.1831665039999,863.0769042969999,853.809509277,826.813171387
1261,1525930601.933143, /muse/eeg,854.2124633789999,869.120849609,852.6007080080001,864.688659668
1262,1525930601.933152, /muse/eeg,848.974365234,867.912109375,853.406616211,869.926757812
1263,1525930601.933161, /muse/eeg,856.630065918,865.091552734,853.406616211,855.0183105469999
1264,1525930601.9331698, /muse/eeg,869.120849609,861.868103027,854.615356445,846.556762695
1265,1525930601.933179, /muse/eeg,853.003662109,861.062255859,855.824157715,848.974365234
1266,1525930601.933187, /muse/eeg,857.838806152,864.285705566,855.0183105469999,875.164855957
1267,1525930601.933196, /muse/eeg,869.120849609,867.509155273,849.377319336,871.94140625
1268,1525930601.9332051, /muse/eeg,844.945068359,867.1062011719999,850.58605957,832.8571166989999
1269,1525930601.933214, /muse/eeg,845.750915527,866.703308105,851.79486084,836.886474609
1270,1525930601.933223, /muse/eeg,873.553100586,869.926757812,843.73626709,863.479858398
1271,1525930601.975183, /muse/eeg,860.659362793,868.315002441,844.945068359,869.120849609
1272,1525930601.975211, /muse/eeg,843.333312988,862.67401123,852.6007080080001,834.0659179689999
1273,1525930601.9752212, /muse/eeg,849.780212402,861.062255859,857.838806152,821.5750732419999
1274,1525930601.97523, /muse/eeg,853.809509277,864.688659668,855.0183105469999,859.0476074219999
1275,1525930601.975239, /muse/eeg,848.5714111330001,865.897460938,851.79486084,874.3589477539999
1276,1525930601.975248, /muse/eeg,861.465209961,864.285705566,850.1831665039999,841.3186645510001
1277,1525930601.97526, /muse/eeg,860.659362793,866.703308105,848.168518066,817.1428833010001
1278,1525930601.975268, /muse/eeg,858.2417602539999,862.2710571289999,850.1831665039999,843.73626709
1279,1525930601.9752789, /muse/eeg,860.256408691,860.659362793,852.197814941,869.926757812
1280,1525930601.97529, /muse/eeg,848.974365234,866.703308105,851.79486084,856.227111816
1281,1525930601.975301, /muse/eeg,847.765563965,861.465209961,855.421264648,830.842468262
1282,1525930601.9753132, /muse/eeg,849.780212402,855.0183105469999,860.256408691,844.5421142580001
1283,1525930602.0177119, /muse/eeg,856.227111816,857.435913086,855.421264648,880.805847168
1284,1525930602.017749, /muse/eeg,849.780212402,860.659362793,849.377319336,865.494506836
1285,1525930602.0177631, /muse/eeg,853.406616211,857.838806152,849.780212402,829.2307739260001
1286,1525930602.017775, /muse/eeg,857.435913086,859.0476074219999,846.9597167969999,836.0805664060001
