1525930597.011038, /muse/eeg, 
1525930597.011920, /muse/eeg, 
1525930597.011923, /muse/eeg, 
1525930597.011927, /muse/acc, -0.340026855469, 0.124694824219, 0.902404785156
1525930597.011933, /muse/acc, -0.338928222656, 0.123596191406, 0.904418945312
1525930597.011935, /muse/acc, -0.338195800781, 0.122314453125, 0.905883789062
1525930597.011960, /muse/eeg, 
1525930597.011947, /muse/eeg, 837.692321777, 875.567749023, 852.197814941, 864.285705566, nan, nan
1525930597.011970, /muse/eeg, 
1525930597.011964, /muse/eeg, 837.289367676, 874.358947754, 853.003662109, 863.8828125, nan, nan
1525930597.011979, /muse/eeg, 
1525930597.011973, /muse/eeg, 836.886474609, 873.553100586, 854.615356445, 834.871765137, nan, nan
1525930597.011988, /muse/eeg, 
1525930597.011983, /muse/eeg, 838.498168945, 876.373596191, 855.824157715, 823.992675781, nan, nan
1525930597.011997, /muse/eeg, 
1525930597.011992, /muse/eeg, 830.842468262, 875.164855957, 857.032958984, 847.765563965, nan, nan
1525930597.012006, /muse/eeg, 
1525930597.012001, /muse/eeg, 826.41027832, 875.970703125, 854.212463379, 857.838806152, nan, nan
1525930597.012020, /muse/eeg, 
1525930597.012014, /muse/eeg, 817.142883301, 874.761901855, 851.79486084, 827.216125488, nan, nan
1525930597.012029, /muse/eeg, 
1525930597.012024, /muse/eeg, 804.652038574, 876.776550293, 849.377319336, 802.234436035, nan, nan
1525930597.012038, /muse/eeg, 
1525930597.012032, /muse/eeg, 806.666687012, 876.776550293, 848.974365234, 817.545776367, nan, nan
1525930597.012452, /muse/eeg, 
1525930597.012531, /muse/eeg, 
1525930597.012535, /muse/eeg, 
1525930597.012537, /muse/eeg, 
1525930597.012539, /muse/eeg, 
1525930597.012541, /muse/eeg, 
1525930597.012543, /muse/eeg, 
1525930597.012545, /muse/eeg, 
1525930597.012547, /muse/eeg, 
1525930597.012550, /muse/eeg, 
1525930597.012552, /muse/eeg, 
1525930597.012554, /muse/eeg, 
1525930597.012556, /muse/eeg, 
1525930597.012558, /muse/eeg, 
1525930597.012560, /muse/eeg, 
1525930597.012562, /muse/eeg, 
1525930597.012564, /muse/eeg, 
1525930597.012566, /muse/eeg, 
1525930597.012978, /muse/eeg, 
1525930597.012042, /muse/eeg, 801.831481934, 874.761901855, 844.139221191, 829.230773926, nan, nan
1525930597.012992, /muse/eeg, 
1525930597.012983, /muse/eeg, 784.102539062, 875.164855957, 841.318664551, 802.637390137, nan, nan
1525930597.013001, /muse/eeg, 
1525930597.012995, /muse/eeg, 772.417602539, 865.897460938, 846.959716797, 764.358947754, nan, nan
1525930597.053416, /muse/eeg, 
1525930597.053397, /muse/eeg, 779.26739502, 865.494506836, 843.333312988, 772.820495605, nan, nan
1525930597.053444, /muse/eeg, 
1525930597.053435, /muse/eeg, 783.296691895, 878.79119873, 839.304016113, 801.428588867, nan, nan
1525930597.053458, /muse/eeg, 
1525930597.053450, /muse/eeg, 755.897460938, 877.582397461, 836.483520508, 768.79119873, nan, nan
1525930597.053471, /muse/eeg, 
1525930597.053463, /muse/eeg, 724.871765137, 863.076904297, 830.842468262, 711.978027344, nan, nan
1525930597.053484, /muse/eeg, 
1525930597.053476, /muse/eeg, 726.483520508, 860.659362793, 832.051269531, 711.172180176, nan, nan
1525930597.053497, /muse/eeg, 
1525930597.053489, /muse/eeg, 726.080566406, 867.106201172, 835.274719238, 743.406616211, nan, nan
1525930597.053509, /muse/eeg, 
1525930597.053501, /muse/eeg, 715.604370117, 870.329650879, 833.260070801, 745.421264648, nan, nan
1525930597.053521, /muse/eeg, 
1525930597.053514, /muse/eeg, 705.53112793, 869.523803711, 834.065917969, 706.336975098, nan, nan
1525930597.053533, /muse/eeg, 
1525930597.053526, /muse/eeg, 703.113525391, 861.062255859, 844.139221191, 691.428588867, nan, nan
1525930597.053544, /muse/eeg, 
1525930597.053536, /muse/eeg, 706.739929199, 862.67401123, 845.750915527, 715.604370117, nan, nan
1525930597.053557, /muse/eeg, 
1525930597.053549, /muse/eeg, 720.842468262, 867.106201172, 841.318664551, 738.168518066, nan, nan
1525930597.053570, /muse/eeg, 
1525930597.053561, /muse/eeg, 725.274719238, 861.465209961, 843.73626709, 724.065917969, nan, nan
1525930597.053578, /muse/eeg, 
1525930597.053580, /muse/eeg, 
1525930597.053582, /muse/eeg, 
1525930597.053586, /muse/acc, -0.341430664062, 0.121826171875, 0.903137207031
1525930597.053594, /muse/acc, -0.337646484375, 0.123352050781, 0.897888183594
1525930597.053597, /muse/acc, -0.340087890625, 0.122497558594, 0.901123046875
1525930597.075047, /muse/drlref, 1697142.875, 1697142.875
1525930597.075086, /muse/drlref, 1696337.0, 1697142.875
1525930597.075095, /muse/drlref, 1697142.875, 1697142.875
1525930597.075113, /muse/drlref, 1696337.0, 1697142.875
1525930597.075121, /muse/drlref, 1697142.875, 1697142.875
1525930597.075145, /muse/drlref, 1697142.875, 1697142.875
1525930597.095533, /muse/eeg, 
1525930597.095501, /muse/eeg, 718.021972656, 861.868103027, 846.556762695, 707.545776367, nan, nan
1525930597.095573, /muse/eeg, 
1525930597.095559, /muse/eeg, 720.439575195, 866.300354004, 846.153869629, 724.871765137, nan, nan
1525930597.095596, /muse/eeg, 
1525930597.095582, /muse/eeg, 730.915771484, 871.538452148, 846.153869629, 752.67401123, nan, nan
1525930597.095627, /muse/eeg, 
1525930597.095613, /muse/eeg, 728.498168945, 867.509155273, 846.959716797, 737.765563965, nan, nan
1525930597.095650, /muse/eeg, 
1525930597.095636, /muse/eeg, 727.692321777, 865.091552734, 845.347961426, 716.007324219, nan, nan
1525930597.095673, /muse/eeg, 
1525930597.095659, /muse/eeg, 746.630065918, 864.688659668, 846.556762695, 740.989013672, nan, nan
1525930597.095695, /muse/eeg, 
1525930597.095682, /muse/eeg, 757.912109375, 865.091552734, 849.780212402, 778.05859375, nan, nan
1525930597.095729, /muse/eeg, 
1525930597.095715, /muse/eeg, 768.79119873, 864.688659668, 845.750915527, 790.952392578, nan, nan
1525930597.095751, /muse/eeg, 
1525930597.095738, /muse/eeg, 780.073242188, 866.703308105, 848.571411133, 776.043945312, nan, nan
1525930597.095775, /muse/eeg, 
1525930597.095761, /muse/eeg, 780.879150391, 871.538452148, 855.824157715, 774.835144043, nan, nan
1525930597.095798, /muse/eeg, 
1525930597.095784, /muse/eeg, 795.384643555, 867.912109375, 855.018310547, 823.186828613, nan, nan
1525930597.096761, /muse/eeg, 
1525930597.096982, /muse/eeg, 
1525930597.096990, /muse/eeg, 
1525930597.096994, /muse/eeg, 
1525930597.096998, /muse/eeg, 
1525930597.097002, /muse/eeg, 
1525930597.097006, /muse/eeg, 
1525930597.097010, /muse/eeg, 
1525930597.097013, /muse/eeg, 
1525930597.097017, /muse/eeg, 
1525930597.097021, /muse/eeg, 
1525930597.097025, /muse/eeg, 
1525930597.097029, /muse/eeg, 
1525930597.097045, /muse/eeg, 
1525930597.097050, /muse/eeg, 
1525930597.097054, /muse/eeg, 
1525930597.097057, /muse/eeg, 
1525930597.097071, /muse/eeg, 
1525930597.097239, /muse/eeg, 
1525930597.095819, /muse/eeg, 816.336975098, 867.106201172, 853.003662109, 849.780212402, nan, nan
1525930597.118303, /muse/eeg, 
1525930597.118315, /muse/eeg, 
1525930597.118317, /muse/eeg, 
1525930597.118321, /muse/acc, -0.342895507812, 0.12158203125, 0.900146484375
1525930597.118326, /muse/acc, -0.347045898438, 0.118530273438, 0.9013671875
1525930597.118329, /muse/acc, -0.345703125, 0.121398925781, 0.902404785156
1525930597.138920, /muse/eeg, 
1525930597.138870, /muse/eeg, 828.827819824, 870.73260498, 855.824157715, 825.201477051, nan, nan
1525930597.138987, /muse/eeg, 
1525930597.138960, /muse/eeg, 835.67767334, 873.15020752, 857.838806152, 824.395629883, nan, nan
1525930597.139052, /muse/eeg, 
1525930597.139025, /muse/eeg, 848.974365234, 868.717956543, 857.435913086, 865.494506836, nan, nan
1525930597.139117, /muse/eeg, 
1525930597.139090, /muse/eeg, 861.465209961, 867.912109375, 861.465209961, 897.32598877, nan, nan
1525930597.139160, /muse/eeg, 
1525930597.139134, /muse/eeg, 863.076904297, 870.73260498, 862.271057129, 876.776550293, nan, nan
1525930597.139203, /muse/eeg, 
1525930597.139177, /muse/eeg, 867.509155273, 867.912109375, 862.67401123, 857.435913086, nan, nan
1525930597.139253, /muse/eeg, 
1525930597.139221, /muse/eeg, 881.611694336, 870.329650879, 864.688659668, 883.626403809, nan, nan
1525930597.139296, /muse/eeg, 
1525930597.139270, /muse/eeg, 888.05859375, 872.344299316, 866.300354004, 919.084228516, nan, nan
1525930597.139341, /muse/eeg, 
1525930597.139315, /muse/eeg, 886.84979248, 877.179504395, 861.868103027, 905.787536621, nan, nan
1525930597.139398, /muse/eeg, 
1525930597.139372, /muse/eeg, 890.879150391, 875.567749023, 859.047607422, 875.970703125, nan, nan
1525930597.139440, /muse/eeg, 
1525930597.139414, /muse/eeg, 898.937744141, 869.523803711, 861.465209961, 895.311340332, nan, nan
1525930597.139484, /muse/eeg, 
1525930597.139457, /muse/eeg, 895.311340332, 874.358947754, 859.450561523, 929.560424805, nan, nan
1525930597.181734, /muse/eeg, 
1525930597.181751, /muse/eeg, 
1525930597.181754, /muse/eeg, 
1525930597.181760, /muse/acc, -0.340637207031, 0.124938964844, 0.899841308594
1525930597.181769, /muse/acc, -0.341369628906, 0.122253417969, 0.905151367188
1525930597.181772, /muse/acc, -0.341125488281, 0.124389648438, 0.903259277344
1525930597.181813, /muse/eeg, 
1525930597.181794, /muse/eeg, 893.296691895, 883.626403809, 857.435913086, 929.963378906, nan, nan
1525930597.181831, /muse/eeg, 
1525930597.181821, /muse/eeg, 888.461547852, 877.582397461, 859.047607422, 894.102539062, nan, nan
1525930597.181847, /muse/eeg, 
1525930597.181837, /muse/eeg, 888.05859375, 874.358947754, 862.271057129, 886.84979248, nan, nan
1525930597.181863, /muse/eeg, 
1525930597.181853, /muse/eeg, 895.714294434, 873.956054688, 863.479858398, 922.307678223, nan, nan
1525930597.181878, /muse/eeg, 
1525930597.181869, /muse/eeg, 893.699645996, 871.538452148, 862.271057129, 936.813171387, nan, nan
1525930597.181894, /muse/eeg, 
1525930597.181884, /muse/eeg, 890.073242188, 875.164855957, 861.868103027, 905.787536621, nan, nan
1525930597.181909, /muse/eeg, 
1525930597.181900, /muse/eeg, 885.641052246, 874.358947754, 861.868103027, 884.029296875, nan, nan
1525930597.181925, /muse/eeg, 
1525930597.181915, /muse/eeg, 890.476196289, 871.135559082, 860.256408691, 906.996337891, nan, nan
1525930597.181941, /muse/eeg, 
1525930597.181931, /muse/eeg, 892.893798828, 874.761901855, 857.838806152, 933.992675781, nan, nan
1525930597.181956, /muse/eeg, 
1525930597.181947, /muse/eeg, 890.476196289, 875.164855957, 857.032958984, 906.190490723, nan, nan
1525930597.181978, /muse/eeg, 
1525930597.181969, /muse/eeg, 886.84979248, 877.985351562, 856.227111816, 878.388305664, nan, nan
1525930597.181994, /muse/eeg, 
1525930597.181984, /muse/eeg, 881.611694336, 877.985351562, 855.018310547, 896.1171875, nan, nan
1525930597.242591, /muse/eeg, 
1525930597.242601, /muse/eeg, 
1525930597.242603, /muse/eeg, 
1525930597.242607, /muse/acc, -0.339660644531, 0.123413085938, 0.898315429688
1525930597.242613, /muse/acc, -0.339660644531, 0.125732421875, 0.897277832031
1525930597.242615, /muse/acc, -0.338195800781, 0.126220703125, 0.899780273438
1525930597.242644, /muse/eeg, 
1525930597.242629, /muse/eeg, 881.611694336, 875.567749023, 853.809509277, 913.443237305, nan, nan
1525930597.243093, /muse/eeg, 
1525930597.243237, /muse/eeg, 
1525930597.243240, /muse/eeg, 
1525930597.243242, /muse/eeg, 
1525930597.243244, /muse/eeg, 
1525930597.243247, /muse/eeg, 
1525930597.243253, /muse/eeg, 
1525930597.243255, /muse/eeg, 
1525930597.243257, /muse/eeg, 
1525930597.243259, /muse/eeg, 
1525930597.243261, /muse/eeg, 
1525930597.243263, /muse/eeg, 
1525930597.243265, /muse/eeg, 
1525930597.243268, /muse/eeg, 
1525930597.243275, /muse/eeg, 
1525930597.243277, /muse/eeg, 
1525930597.243279, /muse/eeg, 
1525930597.243281, /muse/eeg, 
1525930597.243347, /muse/eeg, 
1525930597.242648, /muse/eeg, 880.402954102, 873.15020752, 858.241760254, 901.355285645, nan, nan
1525930597.243363, /muse/eeg, 
1525930597.243353, /muse/eeg, 875.164855957, 871.538452148, 861.868103027, 870.329650879, nan, nan
1525930597.243373, /muse/eeg, 
1525930597.243367, /muse/eeg, 871.94140625, 875.970703125, 858.644714355, 872.344299316, nan, nan
1525930597.243383, /muse/eeg, 
1525930597.243377, /muse/eeg, 875.567749023, 877.582397461, 858.241760254, 901.355285645, nan, nan
1525930597.243393, /muse/eeg, 
1525930597.243387, /muse/eeg, 878.388305664, 873.15020752, 860.256408691, 903.369934082, nan, nan
1525930597.243403, /muse/eeg, 
1525930597.243396, /muse/eeg, 866.703308105, 871.135559082, 859.85345459, 871.135559082, nan, nan
1525930597.243413, /muse/eeg, 
1525930597.243406, /muse/eeg, 861.062255859, 873.15020752, 857.032958984, 863.076904297, nan, nan
1525930597.243423, /muse/eeg, 
1525930597.243416, /muse/eeg, 869.926757812, 876.373596191, 856.630065918, 895.714294434, nan, nan
1525930597.243432, /muse/eeg, 
1525930597.243426, /muse/eeg, 869.926757812, 874.358947754, 855.824157715, 906.996337891, nan, nan
1525930597.243442, /muse/eeg, 
1525930597.243436, /muse/eeg, 861.465209961, 870.73260498, 856.630065918, 872.344299316, nan, nan
1525930597.243452, /muse/eeg, 
1525930597.243446, /muse/eeg, 859.85345459, 876.373596191, 858.241760254, 850.989013672, nan, nan
1525930597.283955, /muse/drlref, 1697142.875, 1697142.875
1525930597.283971, /muse/drlref, 1696337.0, 1697142.875
1525930597.283974, /muse/drlref, 1696337.0, 1697142.875
1525930597.283980, /muse/drlref, 1697142.875, 1697142.875
1525930597.283982, /muse/drlref, 1697142.875, 1697142.875
1525930597.283985, /muse/drlref, 1697142.875, 1697142.875
1525930597.284017, /muse/eeg, 
1525930597.284001, /muse/eeg, 865.091552734, 879.597045898, 856.630065918, 879.194152832, nan, nan
1525930597.284032, /muse/eeg, 
1525930597.284023, /muse/eeg, 873.553100586, 875.970703125, 859.450561523, 911.831481934, nan, nan
1525930597.284047, /muse/eeg, 
1525930597.284037, /muse/eeg, 874.761901855, 874.761901855, 858.241760254, 889.670349121, nan, nan
1525930597.284061, /muse/eeg, 
1525930597.284052, /muse/eeg, 872.344299316, 875.970703125, 853.003662109, 857.435913086, nan, nan
1525930597.284074, /muse/eeg, 
1525930597.284066, /muse/eeg, 873.15020752, 874.358947754, 852.197814941, 874.358947754, nan, nan
1525930597.284087, /muse/eeg, 
1525930597.284079, /muse/eeg, 872.747253418, 871.538452148, 854.212463379, 901.758239746, nan, nan
1525930597.284101, /muse/eeg, 
1525930597.284092, /muse/eeg, 869.926757812, 872.747253418, 854.212463379, 891.282043457, nan, nan
1525930597.284113, /muse/eeg, 
1525930597.284105, /muse/eeg, 859.85345459, 875.567749023, 851.391967773, 867.509155273, nan, nan
1525930597.284128, /muse/eeg, 
1525930597.284118, /muse/eeg, 859.85345459, 875.567749023, 853.003662109, 869.926757812, nan, nan
1525930597.284143, /muse/eeg, 
1525930597.284133, /muse/eeg, 871.94140625, 878.388305664, 852.600708008, 897.728942871, nan, nan
1525930597.284158, /muse/eeg, 
1525930597.284149, /muse/eeg, 877.179504395, 879.597045898, 853.003662109, 904.175842285, nan, nan
1525930597.284169, /muse/eeg, 
1525930597.284162, /muse/eeg, 863.076904297, 877.582397461, 855.824157715, 867.509155273, nan, nan
1525930597.284178, /muse/eeg, 
1525930597.284180, /muse/eeg, 
1525930597.284182, /muse/eeg, 
1525930597.304215, /muse/acc, -0.340759277344, 0.126037597656, 0.902770996094
1525930597.304261, /muse/acc, -0.343200683594, 0.125305175781, 0.9033203125
1525930597.304273, /muse/acc, -0.345397949219, 0.124633789062, 0.902587890625
1525930597.345241, /muse/eeg, 
1525930597.345220, /muse/eeg, 860.256408691, 875.164855957, 854.212463379, 857.435913086, nan, nan
1525930597.345267, /muse/eeg, 
1525930597.345258, /muse/eeg, 869.926757812, 877.179504395, 853.809509277, 884.835144043, nan, nan
1525930597.345280, /muse/eeg, 
1525930597.345272, /muse/eeg, 860.659362793, 879.597045898, 853.406616211, 894.505493164, nan, nan
1525930597.345873, /muse/eeg, 
1525930597.346105, /muse/eeg, 
1525930597.346114, /muse/eeg, 
1525930597.346119, /muse/eeg, 
1525930597.346124, /muse/eeg, 
1525930597.346126, /muse/eeg, 
1525930597.346129, /muse/eeg, 
1525930597.346132, /muse/eeg, 
1525930597.346134, /muse/eeg, 
1525930597.346143, /muse/eeg, 
1525930597.346146, /muse/eeg, 
1525930597.346149, /muse/eeg, 
1525930597.346152, /muse/eeg, 
1525930597.346155, /muse/eeg, 
1525930597.346157, /muse/eeg, 
1525930597.346159, /muse/eeg, 
1525930597.346162, /muse/eeg, 
1525930597.346164, /muse/eeg, 
1525930597.346428, /muse/eeg, 
1525930597.345285, /muse/eeg, 859.047607422, 877.582397461, 855.018310547, 865.091552734, nan, nan
1525930597.346460, /muse/eeg, 
1525930597.346441, /muse/eeg, 855.018310547, 871.538452148, 856.630065918, 844.945068359, nan, nan
1525930597.346477, /muse/eeg, 
1525930597.346467, /muse/eeg, 852.600708008, 871.135559082, 853.406616211, 865.091552734, nan, nan
1525930597.346494, /muse/eeg, 
1525930597.346484, /muse/eeg, 853.809509277, 876.776550293, 854.212463379, 886.84979248, nan, nan
1525930597.346510, /muse/eeg, 
1525930597.346500, /muse/eeg, 852.600708008, 876.373596191, 855.824157715, 867.509155273, nan, nan
1525930597.346530, /muse/eeg, 
1525930597.346517, /muse/eeg, 852.197814941, 873.15020752, 851.391967773, 834.871765137, nan, nan
1525930597.346546, /muse/eeg, 
1525930597.346536, /muse/eeg, 852.600708008, 873.15020752, 850.183166504, 847.362609863, nan, nan
1525930597.346567, /muse/eeg, 
1525930597.346557, /muse/eeg, 854.212463379, 879.194152832, 849.377319336, 881.20880127, nan, nan
1525930597.346582, /muse/eeg, 
1525930597.346573, /muse/eeg, 846.959716797, 880.0, 846.959716797, 881.20880127, nan, nan
1525930597.346596, /muse/eeg, 
1525930597.346599, /muse/eeg, 
1525930597.346601, /muse/eeg, 
1525930597.346606, /muse/acc, -0.345275878906, 0.124938964844, 0.900817871094
1525930597.346611, /muse/acc, -0.346069335938, 0.123107910156, 0.896789550781
1525930597.346616, /muse/acc, -0.346923828125, 0.122619628906, 0.902221679688
1525930597.407938, /muse/eeg, 
1525930597.407921, /muse/eeg, 842.124511719, 875.567749023, 849.780212402, 848.974365234, nan, nan
1525930597.407956, /muse/eeg, 
1525930597.407949, /muse/eeg, 848.168518066, 876.776550293, 852.197814941, 846.556762695, nan, nan
1525930597.407966, /muse/eeg, 
1525930597.407959, /muse/eeg, 852.600708008, 877.582397461, 850.183166504, 875.970703125, nan, nan
1525930597.407975, /muse/eeg, 
1525930597.407969, /muse/eeg, 852.600708008, 874.358947754, 846.556762695, 886.84979248, nan, nan
1525930597.407985, /muse/eeg, 
1525930597.407979, /muse/eeg, 851.391967773, 872.747253418, 848.974365234, 857.435913086, nan, nan
1525930597.407995, /muse/eeg, 
1525930597.407989, /muse/eeg, 854.212463379, 870.73260498, 850.183166504, 842.124511719, nan, nan
1525930597.408005, /muse/eeg, 
1525930597.407999, /muse/eeg, 867.509155273, 871.94140625, 847.765563965, 866.703308105, nan, nan
1525930597.408015, /muse/eeg, 
1525930597.408009, /muse/eeg, 859.85345459, 876.776550293, 851.79486084, 890.073242188, nan, nan
1525930597.408025, /muse/eeg, 
1525930597.408019, /muse/eeg, 843.73626709, 872.747253418, 853.809509277, 865.897460938, nan, nan
1525930597.408035, /muse/eeg, 
1525930597.408029, /muse/eeg, 846.556762695, 871.538452148, 849.780212402, 832.051269531, nan, nan
1525930597.408045, /muse/eeg, 
1525930597.408039, /muse/eeg, 851.391967773, 879.597045898, 849.377319336, 850.183166504, nan, nan
1525930597.408055, /muse/eeg, 
1525930597.408049, /muse/eeg, 857.838806152, 881.611694336, 850.58605957, 883.626403809, nan, nan
1525930597.408061, /muse/eeg, 
1525930597.408063, /muse/eeg, 
1525930597.408065, /muse/eeg, 
1525930597.408072, /muse/acc, -0.344909667969, 0.126220703125, 0.8984375
1525930597.408076, /muse/acc, -0.341369628906, 0.127136230469, 0.901306152344
1525930597.408078, /muse/acc, -0.340698242188, 0.126953125, 0.905700683594
1525930597.428335, /muse/eeg, 
1525930597.428318, /muse/eeg, 857.032958984, 882.014648438, 848.974365234, 865.897460938, nan, nan
1525930597.428354, /muse/eeg, 
1525930597.428349, /muse/eeg, 848.571411133, 883.223449707, 846.556762695, 823.186828613, nan, nan
1525930597.428363, /muse/eeg, 
1525930597.428358, /muse/eeg, 849.780212402, 881.20880127, 848.168518066, 832.857116699, nan, nan
1525930597.428372, /muse/eeg, 
1525930597.428366, /muse/eeg, 853.003662109, 877.582397461, 850.989013672, 871.538452148, nan, nan
1525930597.428380, /muse/eeg, 
1525930597.428375, /muse/eeg, 847.765563965, 874.761901855, 854.212463379, 871.135559082, nan, nan
1525930597.428837, /muse/eeg, 
1525930597.428964, /muse/eeg, 
1525930597.428968, /muse/eeg, 
1525930597.428970, /muse/eeg, 
1525930597.428971, /muse/eeg, 
1525930597.428973, /muse/eeg, 
1525930597.428975, /muse/eeg, 
1525930597.428977, /muse/eeg, 
1525930597.428979, /muse/eeg, 
1525930597.428981, /muse/eeg, 
1525930597.428982, /muse/eeg, 
1525930597.428984, /muse/eeg, 
1525930597.428986, /muse/eeg, 
1525930597.428988, /muse/eeg, 
1525930597.428990, /muse/eeg, 
1525930597.428992, /muse/eeg, 
1525930597.428994, /muse/eeg, 
1525930597.428995, /muse/eeg, 
1525930597.429121, /muse/eeg, 
1525930597.428383, /muse/eeg, 845.750915527, 875.164855957, 859.047607422, 835.67767334, nan, nan
1525930597.429142, /muse/eeg, 
1525930597.429129, /muse/eeg, 838.901123047, 875.164855957, 857.838806152, 828.827819824, nan, nan
1525930597.429153, /muse/eeg, 
1525930597.429146, /muse/eeg, 839.706970215, 873.15020752, 856.227111816, 857.838806152, nan, nan
1525930597.429162, /muse/eeg, 
1525930597.429156, /muse/eeg, 840.915771484, 869.523803711, 856.227111816, 871.538452148, nan, nan
1525930597.429172, /muse/eeg, 
1525930597.429166, /muse/eeg, 830.036621094, 870.73260498, 859.450561523, 838.095214844, nan, nan
1525930597.429186, /muse/eeg, 
1525930597.429179, /muse/eeg, 825.604370117, 871.94140625, 858.644714355, 819.963378906, nan, nan
1525930597.429195, /muse/eeg, 
1525930597.429189, /muse/eeg, 838.095214844, 868.315002441, 853.406616211, 848.571411133, nan, nan
1525930597.471432, /muse/eeg, 
1525930597.471444, /muse/eeg, 
1525930597.471446, /muse/eeg, 
1525930597.471455, /muse/acc, -0.340209960938, 0.125793457031, 0.905700683594
1525930597.471462, /muse/acc, -0.341003417969, 0.124816894531, 0.901245117188
1525930597.471464, /muse/acc, -0.340942382812, 0.123596191406, 0.896606445312
1525930597.471491, /muse/eeg, 
1525930597.471477, /muse/eeg, 842.52746582, 867.912109375, 853.003662109, 863.479858398, nan, nan
1525930597.471502, /muse/eeg, 
1525930597.471496, /muse/eeg, 824.395629883, 874.761901855, 852.197814941, 837.289367676, nan, nan
1525930597.471512, /muse/eeg, 
1525930597.471506, /muse/eeg, 823.992675781, 874.761901855, 849.377319336, 812.710632324, nan, nan
1525930597.471521, /muse/eeg, 
1525930597.471515, /muse/eeg, 840.512817383, 871.94140625, 848.571411133, 830.439575195, nan, nan
1525930597.471531, /muse/eeg, 
1525930597.471525, /muse/eeg, 838.498168945, 872.344299316, 849.780212402, 860.659362793, nan, nan
1525930597.471541, /muse/eeg, 
1525930597.471535, /muse/eeg, 833.663024902, 871.94140625, 851.391967773, 849.780212402, nan, nan
1525930597.471550, /muse/eeg, 
1525930597.471544, /muse/eeg, 835.67767334, 872.344299316, 851.79486084, 818.754577637, nan, nan
1525930597.471560, /muse/eeg, 
1525930597.471554, /muse/eeg, 837.289367676, 870.73260498, 851.79486084, 826.813171387, nan, nan
1525930597.471570, /muse/eeg, 
1525930597.471564, /muse/eeg, 836.080566406, 869.120849609, 852.600708008, 857.838806152, nan, nan
1525930597.471580, /muse/eeg, 
1525930597.471574, /muse/eeg, 832.857116699, 866.300354004, 853.809509277, 869.926757812, nan, nan
1525930597.471590, /muse/eeg, 
1525930597.471584, /muse/eeg, 846.153869629, 870.73260498, 853.809509277, 844.139221191, nan, nan
1525930597.471600, /muse/eeg, 
1525930597.471594, /muse/eeg, 847.765563965, 881.20880127, 848.571411133, 816.336975098, nan, nan
1525930597.491883, /muse/drlref, 1697142.875, 1697142.875
1525930597.491927, /muse/drlref, 1697142.875, 1697142.875
1525930597.491936, /muse/drlref, 1697142.875, 1697142.875
1525930597.491975, /muse/drlref, 1696337.0, 1697142.875
1525930597.491992, /muse/drlref, 1697142.875, 1697142.875
1525930597.492008, /muse/drlref, 1697142.875, 1697142.875
1525930597.513203, /muse/eeg, 
1525930597.513187, /muse/eeg, 833.260070801, 882.014648438, 846.556762695, 834.46887207, nan, nan
1525930597.513224, /muse/eeg, 
1525930597.513218, /muse/eeg, 830.842468262, 881.20880127, 845.347961426, 846.153869629, nan, nan
1525930597.513234, /muse/eeg, 
1525930597.513228, /muse/eeg, 821.575073242, 878.388305664, 844.945068359, 818.754577637, nan, nan
1525930597.513243, /muse/eeg, 
1525930597.513237, /muse/eeg, 818.351623535, 875.970703125, 844.139221191, 807.069580078, nan, nan
1525930597.513259, /muse/eeg, 
1525930597.513253, /muse/eeg, 833.663024902, 874.761901855, 846.153869629, 834.46887207, nan, nan
1525930597.513270, /muse/eeg, 
1525930597.513263, /muse/eeg, 823.58972168, 873.956054688, 850.989013672, 855.421264648, nan, nan
1525930597.513279, /muse/eeg, 
1525930597.513273, /muse/eeg, 806.26373291, 870.329650879, 848.571411133, 840.109863281, nan, nan
1525930597.513768, /muse/eeg, 
1525930597.513954, /muse/eeg, 
1525930597.513961, /muse/eeg, 
1525930597.513962, /muse/eeg, 
1525930597.513965, /muse/eeg, 
1525930597.513967, /muse/eeg, 
1525930597.513969, /muse/eeg, 
1525930597.513971, /muse/eeg, 
1525930597.513973, /muse/eeg, 
1525930597.513976, /muse/eeg, 
1525930597.513978, /muse/eeg, 
1525930597.513984, /muse/eeg, 
1525930597.513989, /muse/eeg, 
1525930597.513995, /muse/eeg, 
1525930597.514006, /muse/eeg, 
1525930597.514008, /muse/eeg, 
1525930597.514010, /muse/eeg, 
1525930597.514012, /muse/eeg, 
1525930597.514162, /muse/eeg, 
1525930597.513283, /muse/eeg, 817.142883301, 864.688659668, 846.959716797, 811.501831055, nan, nan
1525930597.514192, /muse/eeg, 
1525930597.514171, /muse/eeg, 827.619018555, 869.926757812, 849.780212402, 831.648376465, nan, nan
1525930597.514212, /muse/eeg, 
1525930597.514201, /muse/eeg, 826.813171387, 874.761901855, 852.197814941, 867.509155273, nan, nan
1525930597.514227, /muse/eeg, 
1525930597.514218, /muse/eeg, 831.648376465, 871.538452148, 850.58605957, 855.018310547, nan, nan
1525930597.514241, /muse/eeg, 
1525930597.514233, /muse/eeg, 841.721618652, 872.747253418, 850.989013672, 829.633728027, nan, nan
1525930597.514252, /muse/eeg, 
1525930597.514254, /muse/eeg, 
1525930597.514255, /muse/eeg, 
1525930597.514259, /muse/acc, -0.344665527344, 0.122192382812, 0.897033691406
1525930597.514262, /muse/acc, -0.343566894531, 0.121765136719, 0.901245117188
1525930597.514264, /muse/acc, -0.3427734375, 0.122436523438, 0.901428222656
1525930597.555535, /muse/eeg, 
1525930597.555519, /muse/eeg, 845.347961426, 876.373596191, 853.809509277, 839.304016113, nan, nan
1525930597.555553, /muse/eeg, 
1525930597.555546, /muse/eeg, 842.930419922, 877.582397461, 850.58605957, 869.120849609, nan, nan
1525930597.555562, /muse/eeg, 
1525930597.555556, /muse/eeg, 847.765563965, 879.597045898, 852.197814941, 869.523803711, nan, nan
1525930597.555571, /muse/eeg, 
1525930597.555566, /muse/eeg, 848.168518066, 880.0, 854.615356445, 836.886474609, nan, nan
1525930597.555581, /muse/eeg, 
1525930597.555575, /muse/eeg, 835.67767334, 877.179504395, 850.989013672, 829.230773926, nan, nan
1525930597.555590, /muse/eeg, 
1525930597.555584, /muse/eeg, 836.080566406, 875.567749023, 854.615356445, 858.644714355, nan, nan
1525930597.555600, /muse/eeg, 
1525930597.555594, /muse/eeg, 848.974365234, 872.344299316, 856.227111816, 880.805847168, nan, nan
1525930597.555609, /muse/eeg, 
1525930597.555603, /muse/eeg, 841.721618652, 872.747253418, 852.197814941, 853.809509277, nan, nan
1525930597.555619, /muse/eeg, 
1525930597.555613, /muse/eeg, 832.454223633, 875.567749023, 855.018310547, 821.978027344, nan, nan
1525930597.555629, /muse/eeg, 
1525930597.555623, /muse/eeg, 834.46887207, 872.747253418, 854.212463379, 846.153869629, nan, nan
1525930597.555639, /muse/eeg, 
1525930597.555633, /muse/eeg, 838.498168945, 875.970703125, 851.391967773, 874.761901855, nan, nan
1525930597.555649, /muse/eeg, 
1525930597.555643, /muse/eeg, 844.542114258, 875.567749023, 855.824157715, 858.241760254, nan, nan
1525930597.575930, /muse/eeg, 
1525930597.575961, /muse/eeg, 
1525930597.575968, /muse/eeg, 
1525930597.575982, /muse/acc, -0.341674804688, 0.123474121094, 0.902038574219
1525930597.575999, /muse/acc, -0.339599609375, 0.124572753906, 0.902404785156
1525930597.576010, /muse/acc, -0.336975097656, 0.124389648438, 0.902648925781
1525930597.616981, /muse/eeg, 
1525930597.616958, /muse/eeg, 837.289367676, 873.15020752, 858.241760254, 832.857116699, nan, nan
1525930597.617010, /muse/eeg, 
1525930597.617000, /muse/eeg, 834.065917969, 875.164855957, 852.600708008, 843.333312988, nan, nan
1525930597.617025, /muse/eeg, 
1525930597.617015, /muse/eeg, 838.498168945, 875.164855957, 853.003662109, 870.73260498, nan, nan
1525930597.617047, /muse/eeg, 
1525930597.617038, /muse/eeg, 826.007324219, 875.567749023, 853.406616211, 861.465209961, nan, nan
1525930597.617064, /muse/eeg, 
1525930597.617054, /muse/eeg, 824.798522949, 875.164855957, 849.780212402, 827.619018555, nan, nan
1525930597.617080, /muse/eeg, 
1525930597.617071, /muse/eeg, 828.827819824, 870.329650879, 852.197814941, 831.245422363, nan, nan
1525930597.617104, /muse/eeg, 
1525930597.617093, /muse/eeg, 829.633728027, 869.523803711, 852.197814941, 860.659362793, nan, nan
1525930597.617126, /muse/eeg, 
1525930597.617116, /muse/eeg, 834.871765137, 874.358947754, 849.377319336, 863.8828125, nan, nan
1525930597.617143, /muse/eeg, 
1525930597.617133, /muse/eeg, 828.021972656, 873.15020752, 850.989013672, 823.58972168, nan, nan
1525930597.617910, /muse/eeg, 
1525930597.618112, /muse/eeg, 
1525930597.618119, /muse/eeg, 
1525930597.618124, /muse/eeg, 
1525930597.618129, /muse/eeg, 
1525930597.618133, /muse/eeg, 
1525930597.618137, /muse/eeg, 
1525930597.618141, /muse/eeg, 
1525930597.618145, /muse/eeg, 
1525930597.618149, /muse/eeg, 
1525930597.618154, /muse/eeg, 
1525930597.618158, /muse/eeg, 
1525930597.618169, /muse/eeg, 
1525930597.618172, /muse/eeg, 
1525930597.618176, /muse/eeg, 
1525930597.618180, /muse/eeg, 
1525930597.618184, /muse/eeg, 
1525930597.618189, /muse/eeg, 
1525930597.618414, /muse/eeg, 
1525930597.617149, /muse/eeg, 823.186828613, 870.73260498, 849.377319336, 812.307678223, nan, nan
1525930597.618442, /muse/eeg, 
1525930597.618424, /muse/eeg, 828.021972656, 875.567749023, 844.945068359, 847.362609863, nan, nan
1525930597.618458, /muse/eeg, 
1525930597.618448, /muse/eeg, 831.245422363, 877.985351562, 846.153869629, 863.479858398, nan, nan
1525930597.639099, /muse/eeg, 
1525930597.639112, /muse/eeg, 
1525930597.639114, /muse/eeg, 
1525930597.639118, /muse/acc, -0.33544921875, 0.123229980469, 0.903686523438
1525930597.639124, /muse/acc, -0.335205078125, 0.124877929688, 0.898681640625
1525930597.639128, /muse/acc, -0.343994140625, 0.123168945312, 0.895263671875
1525930597.680816, /muse/eeg, 
1525930597.680799, /muse/eeg, 830.439575195, 877.179504395, 848.974365234, 838.901123047, nan, nan
1525930597.680835, /muse/eeg, 
1525930597.680829, /muse/eeg, 829.230773926, 876.776550293, 850.183166504, 814.32232666, nan, nan
1525930597.680845, /muse/eeg, 
1525930597.680839, /muse/eeg, 830.842468262, 877.179504395, 851.391967773, 839.706970215, nan, nan
1525930597.680854, /muse/eeg, 
1525930597.680848, /muse/eeg, 835.67767334, 878.388305664, 848.571411133, 870.329650879, nan, nan
1525930597.680863, /muse/eeg, 
1525930597.680857, /muse/eeg, 836.886474609, 875.567749023, 846.959716797, 851.391967773, nan, nan
1525930597.680878, /muse/eeg, 
1525930597.680872, /muse/eeg, 832.454223633, 869.120849609, 848.571411133, 828.021972656, nan, nan
1525930597.680888, /muse/eeg, 
1525930597.680882, /muse/eeg, 832.857116699, 869.926757812, 850.58605957, 840.915771484, nan, nan
1525930597.680898, /muse/eeg, 
1525930597.680892, /muse/eeg, 835.274719238, 874.761901855, 850.989013672, 859.450561523, nan, nan
1525930597.680908, /muse/eeg, 
1525930597.680902, /muse/eeg, 832.454223633, 869.926757812, 848.571411133, 852.600708008, nan, nan
1525930597.680918, /muse/eeg, 
1525930597.680912, /muse/eeg, 833.260070801, 871.135559082, 846.959716797, 828.827819824, nan, nan
1525930597.680928, /muse/eeg, 
1525930597.680922, /muse/eeg, 836.483520508, 875.567749023, 848.168518066, 826.813171387, nan, nan
1525930597.680938, /muse/eeg, 
1525930597.680932, /muse/eeg, 838.095214844, 874.761901855, 849.780212402, 853.809509277, nan, nan
1525930597.701137, /muse/eeg, 
1525930597.701170, /muse/eeg, 
1525930597.701177, /muse/eeg, 
1525930597.701191, /muse/acc, -0.3466796875, 0.121948242188, 0.8974609375
1525930597.701209, /muse/acc, -0.347229003906, 0.122497558594, 0.900207519531
1525930597.701234, /muse/acc, -0.341125488281, 0.123168945312, 0.904052734375
1525930597.701254, /muse/drlref, 1697142.875, 1697142.875
1525930597.701267, /muse/drlref, 1697142.875, 1697142.875
1525930597.701278, /muse/drlref, 1696337.0, 1697142.875
1525930597.701297, /muse/drlref, 1697142.875, 1697142.875
1525930597.701307, /muse/drlref, 1696337.0, 1697142.875
1525930597.701317, /muse/drlref, 1697142.875, 1697142.875
1525930597.722084, /muse/eeg, 
1525930597.722026, /muse/eeg, 838.901123047, 872.747253418, 850.989013672, 864.688659668, nan, nan
1525930597.722166, /muse/eeg, 
1525930597.722130, /muse/eeg, 835.67767334, 873.553100586, 849.780212402, 832.857116699, nan, nan
1525930597.722222, /muse/eeg, 
1525930597.722188, /muse/eeg, 835.67767334, 874.358947754, 850.58605957, 816.739929199, nan, nan
1525930597.722285, /muse/eeg, 
1525930597.722253, /muse/eeg, 835.67767334, 877.582397461, 852.197814941, 846.556762695, nan, nan
1525930597.722326, /muse/eeg, 
1525930597.722300, /muse/eeg, 828.827819824, 877.582397461, 852.197814941, 865.091552734, nan, nan
1525930597.722366, /muse/eeg, 
1525930597.722340, /muse/eeg, 828.021972656, 871.135559082, 854.212463379, 840.512817383, nan, nan
1525930597.722433, /muse/eeg, 
1525930597.722393, /muse/eeg, 830.842468262, 872.344299316, 856.227111816, 819.157531738, nan, nan
1525930597.722591, /muse/eeg, 
1525930597.722553, /muse/eeg, 832.857116699, 876.373596191, 855.421264648, 836.080566406, nan, nan
1525930597.722633, /muse/eeg, 
1525930597.722607, /muse/eeg, 831.245422363, 870.73260498, 853.406616211, 865.091552734, nan, nan
1525930597.722674, /muse/eeg, 
1525930597.722648, /muse/eeg, 825.201477051, 866.300354004, 857.838806152, 850.183166504, nan, nan
1525930597.722715, /muse/eeg, 
1525930597.722689, /muse/eeg, 823.58972168, 873.553100586, 857.435913086, 814.32232666, nan, nan
1525930597.724357, /muse/eeg, 
1525930597.724676, /muse/eeg, 
1525930597.724690, /muse/eeg, 
1525930597.724703, /muse/eeg, 
1525930597.724716, /muse/eeg, 
1525930597.724729, /muse/eeg, 
1525930597.724738, /muse/eeg, 
1525930597.724745, /muse/eeg, 
1525930597.724752, /muse/eeg, 
1525930597.724761, /muse/eeg, 
1525930597.724783, /muse/eeg, 
1525930597.724790, /muse/eeg, 
1525930597.724798, /muse/eeg, 
1525930597.724805, /muse/eeg, 
1525930597.724813, /muse/eeg, 
1525930597.724821, /muse/eeg, 
1525930597.724829, /muse/eeg, 
1525930597.724836, /muse/eeg, 
1525930597.725118, /muse/eeg, 
1525930597.722730, /muse/eeg, 825.604370117, 877.985351562, 849.377319336, 828.424926758, nan, nan
1525930597.765642, /muse/eeg, 
1525930597.765624, /muse/eeg, 829.230773926, 878.79119873, 849.377319336, 855.421264648, nan, nan
1525930597.765661, /muse/eeg, 
1525930597.765655, /muse/eeg, 828.424926758, 878.79119873, 850.58605957, 848.974365234, nan, nan
1525930597.765670, /muse/eeg, 
1525930597.765665, /muse/eeg, 823.58972168, 876.776550293, 848.168518066, 821.575073242, nan, nan
1525930597.765680, /muse/eeg, 
1525930597.765674, /muse/eeg, 834.871765137, 874.358947754, 848.974365234, 816.739929199, nan, nan
1525930597.765688, /muse/eeg, 
1525930597.765683, /muse/eeg, 835.274719238, 872.747253418, 850.58605957, 846.556762695, nan, nan
1525930597.765702, /muse/eeg, 
1525930597.765696, /muse/eeg, 827.216125488, 871.538452148, 849.780212402, 859.450561523, nan, nan
1525930597.765716, /muse/eeg, 
1525930597.765709, /muse/eeg, 828.021972656, 875.567749023, 848.168518066, 834.065917969, nan, nan
1525930597.765726, /muse/eeg, 
1525930597.765719, /muse/eeg, 833.663024902, 880.0, 846.959716797, 818.351623535, nan, nan
1525930597.765736, /muse/eeg, 
1525930597.765730, /muse/eeg, 842.52746582, 880.0, 847.362609863, 844.945068359, nan, nan
1525930597.765746, /muse/eeg, 
1525930597.765740, /muse/eeg, 844.139221191, 880.402954102, 852.600708008, 864.688659668, nan, nan
1525930597.765756, /muse/eeg, 
1525930597.765749, /muse/eeg, 834.46887207, 882.417602539, 849.377319336, 845.750915527, nan, nan
1525930597.765766, /muse/eeg, 
1525930597.765760, /muse/eeg, 830.842468262, 877.582397461, 845.750915527, 819.560424805, nan, nan
1525930597.785879, /muse/eeg, 
1525930597.785891, /muse/eeg, 
1525930597.785892, /muse/eeg, 
1525930597.785897, /muse/acc, -0.33642578125, 0.121704101562, 0.903747558594
1525930597.785904, /muse/acc, -0.344177246094, 0.124328613281, 0.894775390625
1525930597.785906, /muse/acc, -0.353576660156, 0.120971679688, 0.892883300781
1525930597.806089, /muse/eeg, 
1525930597.806072, /muse/eeg, 830.842468262, 875.567749023, 847.765563965, 836.080566406, nan, nan
1525930597.806109, /muse/eeg, 
1525930597.806103, /muse/eeg, 833.663024902, 877.179504395, 845.347961426, 866.703308105, nan, nan
1525930597.806118, /muse/eeg, 
1525930597.806113, /muse/eeg, 832.454223633, 876.776550293, 847.362609863, 851.79486084, nan, nan
1525930597.806128, /muse/eeg, 
1525930597.806122, /muse/eeg, 828.021972656, 877.179504395, 851.79486084, 822.783874512, nan, nan
1525930597.806137, /muse/eeg, 
1525930597.806131, /muse/eeg, 836.483520508, 875.164855957, 849.780212402, 836.080566406, nan, nan
1525930597.806150, /muse/eeg, 
1525930597.806144, /muse/eeg, 844.139221191, 873.956054688, 848.168518066, 874.358947754, nan, nan
1525930597.806161, /muse/eeg, 
1525930597.806155, /muse/eeg, 842.124511719, 875.970703125, 850.58605957, 873.553100586, nan, nan
1525930597.806171, /muse/eeg, 
1525930597.806165, /muse/eeg, 842.52746582, 873.956054688, 854.212463379, 839.706970215, nan, nan
1525930597.806180, /muse/eeg, 
1525930597.806174, /muse/eeg, 845.750915527, 873.15020752, 854.615356445, 837.692321777, nan, nan
1525930597.806190, /muse/eeg, 
1525930597.806184, /muse/eeg, 846.959716797, 877.582397461, 852.600708008, 866.300354004, nan, nan
1525930597.806200, /muse/eeg, 
1525930597.806194, /muse/eeg, 855.018310547, 878.388305664, 857.032958984, 878.388305664, nan, nan
1525930597.806209, /muse/eeg, 
1525930597.806203, /muse/eeg, 854.212463379, 873.956054688, 859.450561523, 852.600708008, nan, nan
1525930597.827173, /muse/eeg, 
1525930597.827183, /muse/eeg, 
1525930597.827185, /muse/eeg, 
1525930597.827189, /muse/acc, -0.360107421875, 0.118957519531, 0.901611328125
1525930597.827195, /muse/acc, -0.354309082031, 0.122680664062, 0.900756835938
1525930597.827197, /muse/acc, -0.350280761719, 0.123046875, 0.902465820312
1525930597.847474, /muse/eeg, 
1525930597.847458, /muse/eeg, 844.542114258, 869.120849609, 855.824157715, 832.857116699, nan, nan
1525930597.847933, /muse/eeg, 
1525930597.848117, /muse/eeg, 
1525930597.848122, /muse/eeg, 
1525930597.848124, /muse/eeg, 
1525930597.848125, /muse/eeg, 
1525930597.848132, /muse/eeg, 
1525930597.848133, /muse/eeg, 
1525930597.848135, /muse/eeg, 
1525930597.848137, /muse/eeg, 
1525930597.848139, /muse/eeg, 
1525930597.848141, /muse/eeg, 
1525930597.848143, /muse/eeg, 
1525930597.848144, /muse/eeg, 
1525930597.848146, /muse/eeg, 
1525930597.848148, /muse/eeg, 
1525930597.848150, /muse/eeg, 
1525930597.848152, /muse/eeg, 
1525930597.848154, /muse/eeg, 
1525930597.848416, /muse/eeg, 
1525930597.847488, /muse/eeg, 847.765563965, 876.776550293, 853.809509277, 855.421264648, nan, nan
1525930597.848441, /muse/eeg, 
1525930597.848424, /muse/eeg, 843.73626709, 879.194152832, 850.58605957, 880.805847168, nan, nan
1525930597.848453, /muse/eeg, 
1525930597.848445, /muse/eeg, 842.124511719, 875.164855957, 853.406616211, 857.838806152, nan, nan
1525930597.848463, /muse/eeg, 
1525930597.848456, /muse/eeg, 847.362609863, 874.358947754, 850.58605957, 824.798522949, nan, nan
1525930597.848472, /muse/eeg, 
1525930597.848466, /muse/eeg, 843.73626709, 873.956054688, 847.362609863, 845.347961426, nan, nan
1525930597.848482, /muse/eeg, 
1525930597.848476, /muse/eeg, 843.333312988, 875.970703125, 850.183166504, 886.84979248, nan, nan
1525930597.848491, /muse/eeg, 
1525930597.848485, /muse/eeg, 842.930419922, 870.329650879, 850.989013672, 882.417602539, nan, nan
1525930597.848500, /muse/eeg, 
1525930597.848494, /muse/eeg, 834.065917969, 867.912109375, 850.183166504, 833.663024902, nan, nan
1525930597.848509, /muse/eeg, 
1525930597.848504, /muse/eeg, 837.289367676, 876.776550293, 847.765563965, 828.827819824, nan, nan
1525930597.848519, /muse/eeg, 
1525930597.848513, /muse/eeg, 841.721618652, 875.970703125, 843.73626709, 859.450561523, nan, nan
1525930597.848528, /muse/eeg, 
1525930597.848522, /muse/eeg, 840.109863281, 870.329650879, 845.347961426, 861.868103027, nan, nan
1525930597.868730, /muse/eeg, 
1525930597.868742, /muse/eeg, 
1525930597.868744, /muse/eeg, 
1525930597.888776, /muse/acc, -0.34765625, 0.124633789062, 0.904907226562
1525930597.888791, /muse/acc, -0.345764160156, 0.124450683594, 0.898986816406
1525930597.888798, /muse/acc, -0.344055175781, 0.123901367188, 0.901611328125
1525930597.888828, /muse/eeg, 
1525930597.888814, /muse/eeg, 845.347961426, 870.73260498, 849.780212402, 830.439575195, nan, nan
1525930597.888839, /muse/eeg, 
1525930597.888832, /muse/eeg, 844.542114258, 872.747253418, 849.780212402, 824.395629883, nan, nan
1525930597.888849, /muse/eeg, 
1525930597.888843, /muse/eeg, 836.483520508, 871.538452148, 848.571411133, 853.809509277, nan, nan
1525930597.888859, /muse/eeg, 
1525930597.888853, /muse/eeg, 833.260070801, 867.912109375, 849.377319336, 867.509155273, nan, nan
1525930597.888869, /muse/eeg, 
1525930597.888863, /muse/eeg, 830.036621094, 867.912109375, 851.79486084, 838.498168945, nan, nan
1525930597.888880, /muse/eeg, 
1525930597.888873, /muse/eeg, 824.395629883, 865.494506836, 853.809509277, 819.560424805, nan, nan
1525930597.888889, /muse/eeg, 
1525930597.888884, /muse/eeg, 832.857116699, 865.091552734, 855.018310547, 841.721618652, nan, nan
1525930597.888900, /muse/eeg, 
1525930597.888894, /muse/eeg, 836.483520508, 867.912109375, 851.79486084, 860.256408691, nan, nan
1525930597.888910, /muse/eeg, 
1525930597.888904, /muse/eeg, 825.201477051, 870.329650879, 848.571411133, 848.168518066, nan, nan
1525930597.888920, /muse/eeg, 
1525930597.888914, /muse/eeg, 816.336975098, 868.315002441, 854.615356445, 820.366271973, nan, nan
1525930597.888930, /muse/eeg, 
1525930597.888924, /muse/eeg, 821.172180176, 865.494506836, 857.435913086, 829.230773926, nan, nan
1525930597.888940, /muse/eeg, 
1525930597.888934, /muse/eeg, 837.692321777, 868.717956543, 853.003662109, 870.73260498, nan, nan
1525930597.930380, /muse/drlref, 1696337.0, 1697142.875
1525930597.930426, /muse/drlref, 1697142.875, 1697142.875
1525930597.930436, /muse/drlref, 1697142.875, 1697142.875
1525930597.930455, /muse/drlref, 1696337.0, 1697142.875
1525930597.930464, /muse/drlref, 1696337.0, 1697142.875
1525930597.930472, /muse/drlref, 1696337.0, 1697142.875
1525930597.951488, /muse/eeg, 
1525930597.951510, /muse/eeg, 
1525930597.951513, /muse/eeg, 
1525930597.951521, /muse/acc, -0.341735839844, 0.126342773438, 0.900451660156
1525930597.951532, /muse/acc, -0.336975097656, 0.129211425781, 0.902221679688
1525930597.951538, /muse/acc, -0.332946777344, 0.1298828125, 0.905517578125
1525930597.951611, /muse/eeg, 
1525930597.951586, /muse/eeg, 834.065917969, 870.73260498, 851.79486084, 865.091552734, nan, nan
1525930597.951635, /muse/eeg, 
1525930597.951620, /muse/eeg, 830.036621094, 868.315002441, 853.809509277, 821.172180176, nan, nan
1525930597.951657, /muse/eeg, 
1525930597.951643, /muse/eeg, 832.051269531, 865.897460938, 853.406616211, 826.41027832, nan, nan
1525930597.952647, /muse/eeg, 
1525930597.952863, /muse/eeg, 
1525930597.952882, /muse/eeg, 
1525930597.952886, /muse/eeg, 
1525930597.952891, /muse/eeg, 
1525930597.952895, /muse/eeg, 
1525930597.952899, /muse/eeg, 
1525930597.952904, /muse/eeg, 
1525930597.952909, /muse/eeg, 
1525930597.952914, /muse/eeg, 
1525930597.952919, /muse/eeg, 
1525930597.952925, /muse/eeg, 
1525930597.952934, /muse/eeg, 
1525930597.952938, /muse/eeg, 
1525930597.952942, /muse/eeg, 
1525930597.952948, /muse/eeg, 
1525930597.952951, /muse/eeg, 
1525930597.952957, /muse/eeg, 
1525930597.953120, /muse/eeg, 
1525930597.951666, /muse/eeg, 830.842468262, 870.329650879, 849.377319336, 857.838806152, nan, nan
1525930597.953178, /muse/eeg, 
1525930597.953145, /muse/eeg, 830.439575195, 872.747253418, 850.58605957, 858.644714355, nan, nan
1525930597.953216, /muse/eeg, 
1525930597.953194, /muse/eeg, 830.036621094, 866.703308105, 850.58605957, 833.260070801, nan, nan
1525930597.953258, /muse/eeg, 
1525930597.953230, /muse/eeg, 842.52746582, 864.688659668, 847.362609863, 824.798522949, nan, nan
1525930597.953302, /muse/eeg, 
1525930597.953275, /muse/eeg, 840.109863281, 867.912109375, 847.765563965, 846.959716797, nan, nan
1525930597.953344, /muse/eeg, 
1525930597.953321, /muse/eeg, 834.46887207, 874.761901855, 844.542114258, 863.479858398, nan, nan
1525930597.953387, /muse/eeg, 
1525930597.953359, /muse/eeg, 833.663024902, 873.553100586, 843.73626709, 843.333312988, nan, nan
1525930597.953414, /muse/eeg, 
1525930597.953399, /muse/eeg, 822.783874512, 865.091552734, 846.556762695, 817.948730469, nan, nan
1525930597.953441, /muse/eeg, 
1525930597.953423, /muse/eeg, 824.395629883, 865.897460938, 848.571411133, 834.065917969, nan, nan
1525930597.995402, /muse/eeg, 
1525930597.995355, /muse/eeg, 829.230773926, 870.73260498, 846.556762695, 867.509155273, nan, nan
1525930597.995469, /muse/eeg, 
1525930597.995442, /muse/eeg, 825.201477051, 866.703308105, 848.571411133, 849.780212402, nan, nan
1525930597.995527, /muse/eeg, 
1525930597.995501, /muse/eeg, 827.216125488, 863.8828125, 852.600708008, 812.710632324, nan, nan
1525930597.995569, /muse/eeg, 
1525930597.995543, /muse/eeg, 826.813171387, 868.717956543, 846.556762695, 822.380981445, nan, nan
1525930597.995625, /muse/eeg, 
1525930597.995584, /muse/eeg, 825.604370117, 871.94140625, 844.945068359, 860.659362793, nan, nan
1525930597.995668, /muse/eeg, 
1525930597.995642, /muse/eeg, 820.769226074, 867.106201172, 850.989013672, 857.032958984, nan, nan
1525930597.995708, /muse/eeg, 
1525930597.995683, /muse/eeg, 823.992675781, 863.8828125, 846.153869629, 820.769226074, nan, nan
1525930597.995750, /muse/eeg, 
1525930597.995723, /muse/eeg, 844.945068359, 867.509155273, 845.750915527, 830.842468262, nan, nan
1525930597.995798, /muse/eeg, 
1525930597.995764, /muse/eeg, 837.692321777, 872.344299316, 855.018310547, 856.227111816, nan, nan
1525930597.995838, /muse/eeg, 
1525930597.995813, /muse/eeg, 819.157531738, 870.329650879, 850.183166504, 845.750915527, nan, nan
1525930597.995879, /muse/eeg, 
1525930597.995853, /muse/eeg, 815.53112793, 867.912109375, 849.377319336, 809.890136719, nan, nan
1525930597.995920, /muse/eeg, 
1525930597.995895, /muse/eeg, 800.219787598, 869.120849609, 850.989013672, 787.728942871, nan, nan
1525930597.995944, /muse/eeg, 
1525930597.995951, /muse/eeg, 
1525930597.995958, /muse/eeg, 
1525930597.995969, /muse/acc, -0.330688476562, 0.126525878906, 0.908508300781
1525930597.995983, /muse/acc, -0.328552246094, 0.126831054688, 0.908325195312
1525930597.995993, /muse/acc, -0.326232910156, 0.125793457031, 0.904663085938
1525930598.036685, /muse/eeg, 
1525930598.036635, /muse/eeg, 784.102539062, 865.897460938, 843.333312988, 805.457885742, nan, nan
1525930598.036754, /muse/eeg, 
1525930598.036726, /muse/eeg, 789.340637207, 863.8828125, 843.73626709, 825.604370117, nan, nan
1525930598.036796, /muse/eeg, 
1525930598.036769, /muse/eeg, 789.743591309, 861.465209961, 851.79486084, 801.831481934, nan, nan
1525930598.036840, /muse/eeg, 
1525930598.036814, /muse/eeg, 780.879150391, 865.494506836, 848.168518066, 767.179504395, nan, nan
1525930598.036886, /muse/eeg, 
1525930598.036858, /muse/eeg, 774.029296875, 869.926757812, 842.930419922, 776.84979248, nan, nan
1525930598.038705, /muse/eeg, 
1525930598.039145, /muse/eeg, 
1525930598.039157, /muse/eeg, 
1525930598.039165, /muse/eeg, 
1525930598.039172, /muse/eeg, 
1525930598.039179, /muse/eeg, 
1525930598.039186, /muse/eeg, 
1525930598.039193, /muse/eeg, 
1525930598.039200, /muse/eeg, 
1525930598.039208, /muse/eeg, 
1525930598.039215, /muse/eeg, 
1525930598.039223, /muse/eeg, 
1525930598.039233, /muse/eeg, 
1525930598.039241, /muse/eeg, 
1525930598.039249, /muse/eeg, 
1525930598.039257, /muse/eeg, 
1525930598.039264, /muse/eeg, 
1525930598.039272, /muse/eeg, 
1525930598.039555, /muse/eeg, 
1525930598.036920, /muse/eeg, 772.820495605, 862.67401123, 840.915771484, 796.593383789, nan, nan
1525930598.039638, /muse/eeg, 
1525930598.039587, /muse/eeg, 766.373596191, 862.67401123, 835.274719238, 784.908447266, nan, nan
1525930598.039706, /muse/eeg, 
1525930598.039665, /muse/eeg, 755.091552734, 866.300354004, 836.483520508, 753.076904297, nan, nan
1525930598.039770, /muse/eeg, 
1525930598.039731, /muse/eeg, 760.73260498, 866.703308105, 838.901123047, 765.164855957, nan, nan
1525930598.039833, /muse/eeg, 
1525930598.039792, /muse/eeg, 763.15020752, 871.538452148, 836.886474609, 787.32598877, nan, nan
1525930598.039894, /muse/eeg, 
1525930598.039856, /muse/eeg, 757.912109375, 871.94140625, 838.901123047, 778.05859375, nan, nan
1525930598.039971, /muse/eeg, 
1525930598.039932, /muse/eeg, 756.703308105, 868.717956543, 839.706970215, 760.329650879, nan, nan
1525930598.040023, /muse/eeg, 
1525930598.040034, /muse/eeg, 
1525930598.040043, /muse/eeg, 
1525930598.040063, /muse/acc, -0.329284667969, 0.124633789062, 0.900939941406
1525930598.040085, /muse/acc, -0.330200195312, 0.126159667969, 0.900573730469
1525930598.040100, /muse/acc, -0.329833984375, 0.127014160156, 0.901123046875
1525930598.080987, /muse/eeg, 
1525930598.080960, /muse/eeg, 765.970703125, 869.926757812, 841.318664551, 758.717956543, nan, nan
1525930598.081020, /muse/eeg, 
1525930598.081007, /muse/eeg, 784.102539062, 871.135559082, 846.959716797, 800.219787598, nan, nan
1525930598.081038, /muse/eeg, 
1525930598.081026, /muse/eeg, 800.219787598, 870.73260498, 843.73626709, 820.769226074, nan, nan
1525930598.081065, /muse/eeg, 
1525930598.081053, /muse/eeg, 793.772888184, 872.344299316, 838.901123047, 801.025634766, nan, nan
1525930598.081092, /muse/eeg, 
1525930598.081080, /muse/eeg, 794.981689453, 869.926757812, 841.318664551, 784.102539062, nan, nan
1525930598.081111, /muse/eeg, 
1525930598.081100, /muse/eeg, 813.919433594, 869.926757812, 842.930419922, 806.666687012, nan, nan
1525930598.081131, /muse/eeg, 
1525930598.081119, /muse/eeg, 812.307678223, 871.538452148, 842.930419922, 841.721618652, nan, nan
1525930598.081150, /muse/eeg, 
1525930598.081138, /muse/eeg, 807.47253418, 867.509155273, 844.542114258, 824.395629883, nan, nan
1525930598.081169, /muse/eeg, 
1525930598.081158, /muse/eeg, 814.32232666, 863.8828125, 846.153869629, 793.369934082, nan, nan
1525930598.081188, /muse/eeg, 
1525930598.081177, /muse/eeg, 816.336975098, 863.076904297, 843.333312988, 814.725280762, nan, nan
1525930598.081218, /muse/eeg, 
1525930598.081206, /muse/eeg, 826.813171387, 866.300354004, 844.945068359, 847.765563965, nan, nan
1525930598.081237, /muse/eeg, 
1525930598.081225, /muse/eeg, 830.842468262, 871.135559082, 847.765563965, 840.109863281, nan, nan
1525930598.122238, /muse/eeg, 
1525930598.122249, /muse/eeg, 
1525930598.122251, /muse/eeg, 
1525930598.122255, /muse/acc, -0.333984375, 0.123962402344, 0.907653808594
1525930598.122261, /muse/acc, -0.333312988281, 0.124755859375, 0.908630371094
1525930598.122263, /muse/acc, -0.330932617188, 0.127990722656, 0.905151367188
1525930598.142294, /muse/drlref, 1697142.875, 1697142.875
1525930598.142311, /muse/drlref, 1696337.0, 1697142.875
1525930598.142313, /muse/drlref, 1696337.0, 1697142.875
1525930598.142318, /muse/drlref, 1696337.0, 1697142.875
1525930598.142320, /muse/drlref, 1697142.875, 1697142.875
1525930598.142322, /muse/drlref, 1697142.875, 1697142.875
1525930598.142351, /muse/eeg, 
1525930598.142337, /muse/eeg, 821.978027344, 870.73260498, 847.362609863, 807.875488281, nan, nan
1525930598.142360, /muse/eeg, 
1525930598.142354, /muse/eeg, 821.575073242, 870.329650879, 847.362609863, 813.919433594, nan, nan
1525930598.142375, /muse/eeg, 
1525930598.142369, /muse/eeg, 835.274719238, 875.567749023, 848.571411133, 856.630065918, nan, nan
1525930598.142385, /muse/eeg, 
1525930598.142379, /muse/eeg, 840.915771484, 875.567749023, 851.79486084, 856.630065918, nan, nan
1525930598.142395, /muse/eeg, 
1525930598.142389, /muse/eeg, 829.230773926, 870.73260498, 851.79486084, 825.201477051, nan, nan
1525930598.142410, /muse/eeg, 
1525930598.142404, /muse/eeg, 830.036621094, 870.329650879, 848.571411133, 820.769226074, nan, nan
1525930598.142425, /muse/eeg, 
1525930598.142419, /muse/eeg, 845.347961426, 871.94140625, 847.362609863, 861.062255859, nan, nan
1525930598.142919, /muse/eeg, 
1525930598.143103, /muse/eeg, 
1525930598.143111, /muse/eeg, 
1525930598.143114, /muse/eeg, 
1525930598.143118, /muse/eeg, 
1525930598.143122, /muse/eeg, 
1525930598.143124, /muse/eeg, 
1525930598.143126, /muse/eeg, 
1525930598.143128, /muse/eeg, 
1525930598.143129, /muse/eeg, 
1525930598.143131, /muse/eeg, 
1525930598.143133, /muse/eeg, 
1525930598.143135, /muse/eeg, 
1525930598.143137, /muse/eeg, 
1525930598.143139, /muse/eeg, 
1525930598.143140, /muse/eeg, 
1525930598.143145, /muse/eeg, 
1525930598.143147, /muse/eeg, 
1525930598.143297, /muse/eeg, 
1525930598.142429, /muse/eeg, 850.58605957, 874.358947754, 847.362609863, 884.029296875, nan, nan
1525930598.143318, /muse/eeg, 
1525930598.143305, /muse/eeg, 847.765563965, 869.120849609, 849.780212402, 849.780212402, nan, nan
1525930598.143327, /muse/eeg, 
1525930598.143321, /muse/eeg, 846.556762695, 869.926757812, 852.600708008, 826.007324219, nan, nan
1525930598.143336, /muse/eeg, 
1525930598.143331, /muse/eeg, 848.974365234, 874.358947754, 851.391967773, 854.212463379, nan, nan
1525930598.143346, /muse/eeg, 
1525930598.143340, /muse/eeg, 855.421264648, 873.553100586, 850.183166504, 880.402954102, nan, nan
1525930598.163490, /muse/eeg, 
1525930598.163526, /muse/eeg, 
1525930598.163533, /muse/eeg, 
1525930598.163546, /muse/acc, -0.326354980469, 0.130310058594, 0.907043457031
1525930598.163565, /muse/acc, -0.325256347656, 0.131469726562, 0.910949707031
1525930598.163574, /muse/acc, -0.3271484375, 0.129272460938, 0.911437988281
1525930598.184197, /muse/eeg, 
1525930598.184165, /muse/eeg, 851.391967773, 871.538452148, 853.809509277, 861.465209961, nan, nan
1525930598.184239, /muse/eeg, 
1525930598.184222, /muse/eeg, 855.018310547, 871.538452148, 853.809509277, 838.095214844, nan, nan
1525930598.184276, /muse/eeg, 
1525930598.184258, /muse/eeg, 855.421264648, 873.15020752, 850.58605957, 851.391967773, nan, nan
1525930598.184303, /muse/eeg, 
1525930598.184286, /muse/eeg, 850.58605957, 871.94140625, 855.018310547, 876.373596191, nan, nan
1525930598.184329, /muse/eeg, 
1525930598.184313, /muse/eeg, 850.989013672, 872.344299316, 860.256408691, 868.315002441, nan, nan
1525930598.184355, /muse/eeg, 
1525930598.184338, /muse/eeg, 849.780212402, 872.344299316, 855.018310547, 840.512817383, nan, nan
1525930598.184382, /muse/eeg, 
1525930598.184365, /muse/eeg, 850.989013672, 873.15020752, 853.809509277, 842.930419922, nan, nan
1525930598.184408, /muse/eeg, 
1525930598.184392, /muse/eeg, 855.824157715, 875.164855957, 855.824157715, 879.194152832, nan, nan
1525930598.184435, /muse/eeg, 
1525930598.184417, /muse/eeg, 863.479858398, 871.538452148, 857.435913086, 889.670349121, nan, nan
1525930598.184464, /muse/eeg, 
1525930598.184446, /muse/eeg, 856.227111816, 871.94140625, 859.450561523, 861.062255859, nan, nan
1525930598.184490, /muse/eeg, 
1525930598.184473, /muse/eeg, 853.406616211, 873.956054688, 859.450561523, 841.318664551, nan, nan
1525930598.184519, /muse/eeg, 
1525930598.184500, /muse/eeg, 853.406616211, 871.135559082, 855.824157715, 871.538452148, nan, nan
1525930598.225458, /muse/eeg, 
1525930598.225471, /muse/eeg, 
1525930598.225473, /muse/eeg, 
1525930598.225477, /muse/acc, -0.327270507812, 0.129028320312, 0.907287597656
1525930598.225484, /muse/acc, -0.328430175781, 0.127807617188, 0.903869628906
1525930598.225486, /muse/acc, -0.328369140625, 0.126525878906, 0.902526855469
1525930598.245739, /muse/eeg, 
1525930598.245721, /muse/eeg, 847.765563965, 871.94140625, 852.600708008, 895.311340332, nan, nan
1525930598.245758, /muse/eeg, 
1525930598.245752, /muse/eeg, 846.556762695, 871.135559082, 854.212463379, 858.644714355, nan, nan
1525930598.245768, /muse/eeg, 
1525930598.245762, /muse/eeg, 846.959716797, 871.94140625, 857.032958984, 832.051269531, nan, nan
1525930598.245777, /muse/eeg, 
1525930598.245772, /muse/eeg, 843.333312988, 873.956054688, 857.838806152, 852.197814941, nan, nan
1525930598.245787, /muse/eeg, 
1525930598.245781, /muse/eeg, 859.85345459, 874.761901855, 848.168518066, 884.432250977, nan, nan
1525930598.245802, /muse/eeg, 
1525930598.245796, /muse/eeg, 880.0, 874.358947754, 848.974365234, 890.073242188, nan, nan
1525930598.245811, /muse/eeg, 
1525930598.245805, /muse/eeg, 853.003662109, 869.926757812, 862.271057129, 850.183166504, nan, nan
1525930598.245826, /muse/eeg, 
1525930598.245819, /muse/eeg, 826.813171387, 863.479858398, 860.659362793, 834.871765137, nan, nan
1525930598.245836, /muse/eeg, 
1525930598.245830, /muse/eeg, 828.827819824, 862.67401123, 855.018310547, 859.85345459, nan, nan
1525930598.246351, /muse/eeg, 
1525930598.246503, /muse/eeg, 
1525930598.246514, /muse/eeg, 
1525930598.246519, /muse/eeg, 
1525930598.246522, /muse/eeg, 
1525930598.246526, /muse/eeg, 
1525930598.246528, /muse/eeg, 
1525930598.246531, /muse/eeg, 
1525930598.246535, /muse/eeg, 
1525930598.246537, /muse/eeg, 
1525930598.246541, /muse/eeg, 
1525930598.246545, /muse/eeg, 
1525930598.246547, /muse/eeg, 
1525930598.246550, /muse/eeg, 
1525930598.246553, /muse/eeg, 
1525930598.246555, /muse/eeg, 
1525930598.246559, /muse/eeg, 
1525930598.246561, /muse/eeg, 
1525930598.247173, /muse/eeg, 
1525930598.245839, /muse/eeg, 818.754577637, 863.8828125, 856.227111816, 859.450561523, nan, nan
1525930598.247194, /muse/eeg, 
1525930598.247181, /muse/eeg, 801.831481934, 859.047607422, 861.465209961, 821.575073242, nan, nan
1525930598.247203, /muse/eeg, 
1525930598.247197, /muse/eeg, 795.384643555, 855.018310547, 863.8828125, 790.549438477, nan, nan
1525930598.267748, /muse/eeg, 
1525930598.267730, /muse/eeg, 797.802185059, 852.600708008, 866.703308105, 818.754577637, nan, nan
1525930598.267768, /muse/eeg, 
1525930598.267762, /muse/eeg, 800.622680664, 848.974365234, 869.120849609, 835.67767334, nan, nan
1525930598.267777, /muse/eeg, 
1525930598.267771, /muse/eeg, 793.369934082, 836.886474609, 867.912109375, 801.025634766, nan, nan
1525930598.267785, /muse/eeg, 
1525930598.267779, /muse/eeg, 773.223449707, 830.842468262, 868.717956543, 773.223449707, nan, nan
1525930598.267794, /muse/eeg, 
1525930598.267788, /muse/eeg, 769.597045898, 830.842468262, 872.344299316, 805.054931641, nan, nan
1525930598.267802, /muse/eeg, 
1525930598.267796, /muse/eeg, 769.194152832, 829.230773926, 877.985351562, 835.67767334, nan, nan
1525930598.267811, /muse/eeg, 
1525930598.267805, /muse/eeg, 760.329650879, 826.007324219, 882.014648438, 799.010986328, nan, nan
1525930598.267820, /muse/eeg, 
1525930598.267815, /muse/eeg, 750.659362793, 823.992675781, 884.835144043, 761.538452148, nan, nan
1525930598.267833, /muse/eeg, 
1525930598.267827, /muse/eeg, 751.868103027, 826.41027832, 884.835144043, 786.923095703, nan, nan
1525930598.267843, /muse/eeg, 
1525930598.267837, /muse/eeg, 762.747253418, 826.813171387, 884.835144043, 820.769226074, nan, nan
1525930598.267852, /muse/eeg, 
1525930598.267846, /muse/eeg, 752.271057129, 822.783874512, 885.641052246, 799.010986328, nan, nan
1525930598.267861, /muse/eeg, 
1525930598.267855, /muse/eeg, 751.062255859, 818.351623535, 885.641052246, 772.014648438, nan, nan
1525930598.288780, /muse/eeg, 
1525930598.288790, /muse/eeg, 
1525930598.288792, /muse/eeg, 
1525930598.288796, /muse/acc, -0.330810546875, 0.127197265625, 0.902465820312
1525930598.288801, /muse/acc, -0.332214355469, 0.126098632812, 0.90576171875
1525930598.288803, /muse/acc, -0.336608886719, 0.124816894531, 0.906005859375
1525930598.308893, /muse/eeg, 
1525930598.308875, /muse/eeg, 756.300354004, 821.575073242, 887.655700684, 784.505493164, nan, nan
1525930598.308912, /muse/eeg, 
1525930598.308906, /muse/eeg, 773.626403809, 821.978027344, 884.029296875, 824.395629883, nan, nan
1525930598.308921, /muse/eeg, 
1525930598.308916, /muse/eeg, 784.908447266, 817.948730469, 890.476196289, 838.498168945, nan, nan
1525930598.308930, /muse/eeg, 
1525930598.308924, /muse/eeg, 768.388305664, 819.157531738, 894.102539062, 801.428588867, nan, nan
1525930598.308938, /muse/eeg, 
1525930598.308933, /muse/eeg, 778.461547852, 819.963378906, 888.864440918, 803.443237305, nan, nan
1525930598.308952, /muse/eeg, 
1525930598.308946, /muse/eeg, 792.161193848, 817.948730469, 892.893798828, 855.824157715, nan, nan
1525930598.308962, /muse/eeg, 
1525930598.308956, /muse/eeg, 795.384643555, 813.919433594, 893.699645996, 879.194152832, nan, nan
1525930598.308972, /muse/eeg, 
1525930598.308966, /muse/eeg, 790.14654541, 813.919433594, 894.908447266, 838.095214844, nan, nan
1525930598.308982, /muse/eeg, 
1525930598.308976, /muse/eeg, 791.758239746, 821.575073242, 896.1171875, 814.725280762, nan, nan
1525930598.308992, /muse/eeg, 
1525930598.308986, /muse/eeg, 816.336975098, 827.216125488, 893.296691895, 853.809509277, nan, nan
1525930598.309002, /muse/eeg, 
1525930598.308996, /muse/eeg, 820.366271973, 828.021972656, 890.476196289, 887.252746582, nan, nan
1525930598.309495, /muse/eeg, 
1525930598.309684, /muse/eeg, 
1525930598.309697, /muse/eeg, 
1525930598.309702, /muse/eeg, 
1525930598.309706, /muse/eeg, 
1525930598.309709, /muse/eeg, 
1525930598.309711, /muse/eeg, 
1525930598.309713, /muse/eeg, 
1525930598.309715, /muse/eeg, 
1525930598.309717, /muse/eeg, 
1525930598.309719, /muse/eeg, 
1525930598.309720, /muse/eeg, 
1525930598.309722, /muse/eeg, 
1525930598.309724, /muse/eeg, 
1525930598.309726, /muse/eeg, 
1525930598.309727, /muse/eeg, 
1525930598.309729, /muse/eeg, 
1525930598.309731, /muse/eeg, 
1525930598.309880, /muse/eeg, 
1525930598.309006, /muse/eeg, 812.710632324, 830.842468262, 887.252746582, 872.344299316, nan, nan
1525930598.350126, /muse/drlref, 1696337.0, 1697142.875
1525930598.350141, /muse/drlref, 1697142.875, 1697142.875
1525930598.350143, /muse/drlref, 1696337.0, 1697142.875
1525930598.350149, /muse/drlref, 1697142.875, 1697142.875
1525930598.350151, /muse/drlref, 1696337.0, 1697142.875
1525930598.350153, /muse/drlref, 1697142.875, 1697142.875
1525930598.350159, /muse/eeg, 
1525930598.350160, /muse/eeg, 
1525930598.350162, /muse/eeg, 
1525930598.350165, /muse/acc, -0.336975097656, 0.124938964844, 0.905517578125
1525930598.350168, /muse/acc, -0.333740234375, 0.125244140625, 0.902221679688
1525930598.350171, /muse/acc, -0.330993652344, 0.123229980469, 0.904296875
1525930598.370708, /muse/eeg, 
1525930598.370654, /muse/eeg, 821.172180176, 832.454223633, 882.014648438, 844.139221191, nan, nan
1525930598.370780, /muse/eeg, 
1525930598.370752, /muse/eeg, 833.260070801, 834.871765137, 884.432250977, 863.8828125, nan, nan
1525930598.370838, /muse/eeg, 
1525930598.370810, /muse/eeg, 828.424926758, 838.498168945, 886.446899414, 904.578735352, nan, nan
1525930598.370882, /muse/eeg, 
1525930598.370856, /muse/eeg, 830.036621094, 838.901123047, 882.417602539, 892.087890625, nan, nan
1525930598.370925, /muse/eeg, 
1525930598.370899, /muse/eeg, 830.842468262, 839.706970215, 886.043945312, 856.630065918, nan, nan
1525930598.370967, /muse/eeg, 
1525930598.370942, /muse/eeg, 841.721618652, 840.109863281, 883.223449707, 873.15020752, nan, nan
1525930598.371009, /muse/eeg, 
1525930598.370983, /muse/eeg, 854.212463379, 842.930419922, 876.373596191, 902.564086914, nan, nan
1525930598.371059, /muse/eeg, 
1525930598.371033, /muse/eeg, 850.58605957, 847.362609863, 875.164855957, 894.505493164, nan, nan
1525930598.371101, /muse/eeg, 
1525930598.371076, /muse/eeg, 848.168518066, 848.571411133, 871.94140625, 862.271057129, nan, nan
1525930598.371143, /muse/eeg, 
1525930598.371117, /muse/eeg, 839.304016113, 849.780212402, 868.315002441, 857.032958984, nan, nan
1525930598.371184, /muse/eeg, 
1525930598.371159, /muse/eeg, 843.333312988, 853.003662109, 868.315002441, 880.0, nan, nan
1525930598.371226, /muse/eeg, 
1525930598.371201, /muse/eeg, 850.183166504, 854.615356445, 867.912109375, 891.282043457, nan, nan
1525930598.412674, /muse/eeg, 
1525930598.412688, /muse/eeg, 
1525930598.412690, /muse/eeg, 
1525930598.412694, /muse/acc, -0.335388183594, 0.121826171875, 0.901184082031
1525930598.412702, /muse/acc, -0.335754394531, 0.120544433594, 0.9013671875
1525930598.412705, /muse/acc, -0.335815429688, 0.119201660156, 0.905456542969
1525930598.412736, /muse/eeg, 
1525930598.412721, /muse/eeg, 833.260070801, 856.227111816, 864.688659668, 860.256408691, nan, nan
1525930598.412748, /muse/eeg, 
1525930598.412741, /muse/eeg, 835.274719238, 853.406616211, 860.659362793, 842.124511719, nan, nan
1525930598.412761, /muse/eeg, 
1525930598.412753, /muse/eeg, 848.974365234, 855.018310547, 859.85345459, 863.8828125, nan, nan
1525930598.412772, /muse/eeg, 
1525930598.412765, /muse/eeg, 857.032958984, 863.479858398, 857.838806152, 883.626403809, nan, nan
1525930598.412784, /muse/eeg, 
1525930598.412777, /muse/eeg, 853.406616211, 859.85345459, 858.644714355, 867.509155273, nan, nan
1525930598.412796, /muse/eeg, 
1525930598.412788, /muse/eeg, 842.124511719, 853.809509277, 867.509155273, 838.095214844, nan, nan
1525930598.412807, /muse/eeg, 
1525930598.412800, /muse/eeg, 845.750915527, 857.435913086, 865.091552734, 856.227111816, nan, nan
1525930598.412819, /muse/eeg, 
1525930598.412812, /muse/eeg, 847.362609863, 862.67401123, 857.032958984, 887.655700684, nan, nan
1525930598.412831, /muse/eeg, 
1525930598.412823, /muse/eeg, 852.600708008, 862.67401123, 861.465209961, 877.179504395, nan, nan
1525930598.412843, /muse/eeg, 
1525930598.412836, /muse/eeg, 850.989013672, 863.076904297, 865.494506836, 846.959716797, nan, nan
1525930598.412855, /muse/eeg, 
1525930598.412848, /muse/eeg, 850.183166504, 861.062255859, 861.062255859, 852.197814941, nan, nan
1525930598.412867, /muse/eeg, 
1525930598.412859, /muse/eeg, 857.032958984, 863.479858398, 859.85345459, 883.223449707, nan, nan
1525930598.453178, /muse/eeg, 
1525930598.453190, /muse/eeg, 
1525930598.453192, /muse/eeg, 
1525930598.453197, /muse/acc, -0.333190917969, 0.118774414062, 0.907104492188
1525930598.453203, /muse/acc, -0.334167480469, 0.118713378906, 0.907531738281
1525930598.453206, /muse/acc, -0.333557128906, 0.117492675781, 0.907043457031
1525930598.473533, /muse/eeg, 
1525930598.473516, /muse/eeg, 854.212463379, 866.703308105, 859.450561523, 884.029296875, nan, nan
1525930598.473964, /muse/eeg, 
1525930598.474057, /muse/eeg, 
1525930598.474061, /muse/eeg, 
1525930598.474065, /muse/eeg, 
1525930598.474068, /muse/eeg, 
1525930598.474070, /muse/eeg, 
1525930598.474072, /muse/eeg, 
1525930598.474074, /muse/eeg, 
1525930598.474075, /muse/eeg, 
1525930598.474078, /muse/eeg, 
1525930598.474079, /muse/eeg, 
1525930598.474081, /muse/eeg, 
1525930598.474084, /muse/eeg, 
1525930598.474085, /muse/eeg, 
1525930598.474088, /muse/eeg, 
1525930598.474091, /muse/eeg, 
1525930598.474093, /muse/eeg, 
1525930598.474095, /muse/eeg, 
1525930598.474457, /muse/eeg, 
1525930598.473546, /muse/eeg, 845.347961426, 868.717956543, 860.659362793, 853.003662109, nan, nan
1525930598.474478, /muse/eeg, 
1525930598.474464, /muse/eeg, 845.347961426, 871.135559082, 860.256408691, 845.347961426, nan, nan
1525930598.474490, /muse/eeg, 
1525930598.474484, /muse/eeg, 854.212463379, 869.926757812, 856.630065918, 872.747253418, nan, nan
1525930598.474499, /muse/eeg, 
1525930598.474493, /muse/eeg, 852.197814941, 871.538452148, 857.838806152, 884.432250977, nan, nan
1525930598.474509, /muse/eeg, 
1525930598.474503, /muse/eeg, 848.571411133, 867.912109375, 857.435913086, 856.630065918, nan, nan
1525930598.474518, /muse/eeg, 
1525930598.474512, /muse/eeg, 845.750915527, 870.73260498, 857.435913086, 835.67767334, nan, nan
1525930598.474528, /muse/eeg, 
1525930598.474522, /muse/eeg, 853.809509277, 876.373596191, 861.465209961, 857.838806152, nan, nan
1525930598.474537, /muse/eeg, 
1525930598.474531, /muse/eeg, 853.809509277, 874.358947754, 859.85345459, 887.252746582, nan, nan
1525930598.474546, /muse/eeg, 
1525930598.474540, /muse/eeg, 843.333312988, 872.747253418, 859.450561523, 870.329650879, nan, nan
1525930598.474555, /muse/eeg, 
1525930598.474549, /muse/eeg, 849.377319336, 875.164855957, 860.659362793, 834.065917969, nan, nan
1525930598.474564, /muse/eeg, 
1525930598.474559, /muse/eeg, 858.644714355, 876.373596191, 857.838806152, 841.318664551, nan, nan
1525930598.516310, /muse/eeg, 
1525930598.516281, /muse/eeg, 860.256408691, 873.956054688, 856.227111816, 873.553100586, nan, nan
1525930598.516349, /muse/eeg, 
1525930598.516335, /muse/eeg, 851.79486084, 875.970703125, 854.212463379, 869.523803711, nan, nan
1525930598.516371, /muse/eeg, 
1525930598.516357, /muse/eeg, 848.571411133, 875.970703125, 854.615356445, 840.512817383, nan, nan
1525930598.516407, /muse/eeg, 
1525930598.516393, /muse/eeg, 844.945068359, 873.15020752, 855.421264648, 841.721618652, nan, nan
1525930598.516430, /muse/eeg, 
1525930598.516416, /muse/eeg, 843.333312988, 871.135559082, 857.838806152, 869.523803711, nan, nan
1525930598.516453, /muse/eeg, 
1525930598.516439, /muse/eeg, 845.347961426, 869.926757812, 859.450561523, 879.194152832, nan, nan
1525930598.516475, /muse/eeg, 
1525930598.516462, /muse/eeg, 835.274719238, 872.747253418, 861.465209961, 851.79486084, nan, nan
1525930598.516498, /muse/eeg, 
1525930598.516484, /muse/eeg, 836.886474609, 872.344299316, 861.868103027, 835.274719238, nan, nan
1525930598.516520, /muse/eeg, 
1525930598.516506, /muse/eeg, 843.333312988, 871.94140625, 859.450561523, 859.85345459, nan, nan
1525930598.516542, /muse/eeg, 
1525930598.516528, /muse/eeg, 842.124511719, 874.358947754, 857.435913086, 882.820495605, nan, nan
1525930598.516565, /muse/eeg, 
1525930598.516550, /muse/eeg, 841.318664551, 873.553100586, 856.630065918, 861.465209961, nan, nan
1525930598.516596, /muse/eeg, 
1525930598.516581, /muse/eeg, 842.124511719, 872.344299316, 858.241760254, 833.260070801, nan, nan
1525930598.516609, /muse/eeg, 
1525930598.516612, /muse/eeg, 
1525930598.516616, /muse/eeg, 
1525930598.516621, /muse/acc, -0.335693359375, 0.115844726562, 0.907592773438
1525930598.516629, /muse/acc, -0.333801269531, 0.11572265625, 0.902465820312
1525930598.516636, /muse/acc, -0.333984375, 0.116516113281, 0.902038574219
1525930598.557517, /muse/drlref, 1697142.875, 1697142.875
1525930598.557532, /muse/drlref, 1696337.0, 1697142.875
1525930598.557534, /muse/drlref, 1697142.875, 1697142.875
1525930598.557538, /muse/drlref, 1696337.0, 1697142.875
1525930598.557540, /muse/drlref, 1696337.0, 1697142.875
1525930598.557541, /muse/drlref, 1697142.875, 1697142.875
1525930598.557568, /muse/eeg, 
1525930598.557555, /muse/eeg, 836.886474609, 871.135559082, 856.630065918, 860.256408691, nan, nan
1525930598.557578, /muse/eeg, 
1525930598.557573, /muse/eeg, 842.124511719, 873.956054688, 854.615356445, 886.84979248, nan, nan
1525930598.557588, /muse/eeg, 
1525930598.557582, /muse/eeg, 851.391967773, 875.970703125, 857.032958984, 867.912109375, nan, nan
1525930598.557998, /muse/eeg, 
1525930598.558126, /muse/eeg, 
1525930598.558129, /muse/eeg, 
1525930598.558132, /muse/eeg, 
1525930598.558134, /muse/eeg, 
1525930598.558136, /muse/eeg, 
1525930598.558137, /muse/eeg, 
1525930598.558139, /muse/eeg, 
1525930598.558140, /muse/eeg, 
1525930598.558142, /muse/eeg, 
1525930598.558144, /muse/eeg, 
1525930598.558146, /muse/eeg, 
1525930598.558148, /muse/eeg, 
1525930598.558149, /muse/eeg, 
1525930598.558150, /muse/eeg, 
1525930598.558152, /muse/eeg, 
1525930598.558154, /muse/eeg, 
1525930598.558155, /muse/eeg, 
1525930598.558276, /muse/eeg, 
1525930598.557592, /muse/eeg, 846.959716797, 872.344299316, 856.630065918, 840.512817383, nan, nan
1525930598.558294, /muse/eeg, 
1525930598.558283, /muse/eeg, 846.556762695, 871.538452148, 856.630065918, 847.362609863, nan, nan
1525930598.558304, /muse/eeg, 
1525930598.558299, /muse/eeg, 848.974365234, 875.164855957, 856.227111816, 873.15020752, nan, nan
1525930598.558313, /muse/eeg, 
1525930598.558308, /muse/eeg, 850.58605957, 879.597045898, 854.615356445, 869.523803711, nan, nan
1525930598.558322, /muse/eeg, 
1525930598.558317, /muse/eeg, 853.406616211, 871.538452148, 855.018310547, 843.333312988, nan, nan
1525930598.558331, /muse/eeg, 
1525930598.558326, /muse/eeg, 861.062255859, 861.868103027, 854.615356445, 853.406616211, nan, nan
1525930598.558340, /muse/eeg, 
1525930598.558335, /muse/eeg, 864.285705566, 873.553100586, 853.809509277, 886.446899414, nan, nan
1525930598.558349, /muse/eeg, 
1525930598.558344, /muse/eeg, 845.347961426, 888.864440918, 850.58605957, 871.135559082, nan, nan
1525930598.558358, /muse/eeg, 
1525930598.558353, /muse/eeg, 840.915771484, 884.029296875, 848.974365234, 837.692321777, nan, nan
1525930598.579506, /muse/eeg, 
1525930598.579519, /muse/eeg, 
1525930598.579520, /muse/eeg, 
1525930598.579523, /muse/acc, -0.337158203125, 0.113830566406, 0.899841308594
1525930598.579529, /muse/acc, -0.343078613281, 0.113342285156, 0.898376464844
1525930598.579531, /muse/acc, -0.342468261719, 0.112854003906, 0.904296875
1525930598.600316, /muse/eeg, 
1525930598.600266, /muse/eeg, 842.124511719, 878.79119873, 849.780212402, 825.201477051, nan, nan
1525930598.600383, /muse/eeg, 
1525930598.600355, /muse/eeg, 834.46887207, 882.417602539, 847.362609863, 842.930419922, nan, nan
1525930598.600451, /muse/eeg, 
1525930598.600425, /muse/eeg, 844.139221191, 884.835144043, 847.765563965, 873.15020752, nan, nan
1525930598.600494, /muse/eeg, 
1525930598.600468, /muse/eeg, 848.571411133, 886.446899414, 848.168518066, 854.212463379, nan, nan
1525930598.600538, /muse/eeg, 
1525930598.600511, /muse/eeg, 850.183166504, 884.835144043, 845.750915527, 822.380981445, nan, nan
1525930598.600582, /muse/eeg, 
1525930598.600555, /muse/eeg, 850.183166504, 883.223449707, 845.750915527, 842.52746582, nan, nan
1525930598.600625, /muse/eeg, 
1525930598.600599, /muse/eeg, 849.780212402, 882.820495605, 850.183166504, 864.688659668, nan, nan
1525930598.600674, /muse/eeg, 
1525930598.600641, /muse/eeg, 849.377319336, 878.79119873, 850.989013672, 848.974365234, nan, nan
1525930598.600718, /muse/eeg, 
1525930598.600692, /muse/eeg, 847.765563965, 878.79119873, 846.959716797, 817.545776367, nan, nan
1525930598.600760, /muse/eeg, 
1525930598.600734, /muse/eeg, 838.095214844, 883.223449707, 848.974365234, 822.380981445, nan, nan
1525930598.600802, /muse/eeg, 
1525930598.600776, /muse/eeg, 833.663024902, 880.402954102, 853.406616211, 863.076904297, nan, nan
1525930598.600845, /muse/eeg, 
1525930598.600819, /muse/eeg, 837.289367676, 874.761901855, 855.421264648, 864.285705566, nan, nan
1525930598.621793, /muse/batt, 73, 4122, 0, 32
1525930598.683964, /muse/eeg, 
1525930598.683977, /muse/eeg, 
1525930598.683978, /muse/eeg, 
1525930598.683983, /muse/acc, -0.337219238281, 0.119140625, 0.898803710938
1525930598.683990, /muse/acc, -0.333068847656, 0.119384765625, 0.905700683594
1525930598.683992, /muse/acc, -0.334716796875, 0.119140625, 0.906799316406
1525930598.684018, /muse/eeg, 
1525930598.684006, /muse/eeg, 832.857116699, 873.15020752, 857.435913086, 834.46887207, nan, nan
1525930598.684028, /muse/eeg, 
1525930598.684023, /muse/eeg, 834.46887207, 875.970703125, 858.241760254, 831.245422363, nan, nan
1525930598.684037, /muse/eeg, 
1525930598.684032, /muse/eeg, 836.080566406, 877.582397461, 856.630065918, 855.824157715, nan, nan
1525930598.684050, /muse/eeg, 
1525930598.684044, /muse/eeg, 836.483520508, 875.970703125, 853.003662109, 873.553100586, nan, nan
1525930598.684059, /muse/eeg, 
1525930598.684053, /muse/eeg, 835.274719238, 875.164855957, 853.809509277, 853.406616211, nan, nan
1525930598.684522, /muse/eeg, 
1525930598.684713, /muse/eeg, 
1525930598.684719, /muse/eeg, 
1525930598.684723, /muse/eeg, 
1525930598.684726, /muse/eeg, 
1525930598.684729, /muse/eeg, 
1525930598.684732, /muse/eeg, 
1525930598.684733, /muse/eeg, 
1525930598.684736, /muse/eeg, 
1525930598.684739, /muse/eeg, 
1525930598.684742, /muse/eeg, 
1525930598.684745, /muse/eeg, 
1525930598.684748, /muse/eeg, 
1525930598.684750, /muse/eeg, 
1525930598.684754, /muse/eeg, 
1525930598.684756, /muse/eeg, 
1525930598.684759, /muse/eeg, 
1525930598.684762, /muse/eeg, 
1525930598.684937, /muse/eeg, 
1525930598.684062, /muse/eeg, 830.439575195, 873.956054688, 856.227111816, 826.007324219, nan, nan
1525930598.684969, /muse/eeg, 
1525930598.684949, /muse/eeg, 833.260070801, 874.761901855, 857.435913086, 848.571411133, nan, nan
1525930598.684982, /muse/eeg, 
1525930598.684974, /muse/eeg, 836.483520508, 872.747253418, 858.241760254, 871.94140625, nan, nan
1525930598.684992, /muse/eeg, 
1525930598.684985, /muse/eeg, 832.454223633, 873.15020752, 856.227111816, 852.197814941, nan, nan
1525930598.685001, /muse/eeg, 
1525930598.684996, /muse/eeg, 827.619018555, 873.553100586, 855.824157715, 825.604370117, nan, nan
1525930598.685010, /muse/eeg, 
1525930598.685004, /muse/eeg, 836.080566406, 871.538452148, 854.615356445, 836.080566406, nan, nan
1525930598.685019, /muse/eeg, 
1525930598.685013, /muse/eeg, 848.571411133, 876.373596191, 852.197814941, 872.747253418, nan, nan
1525930598.685028, /muse/eeg, 
1525930598.685031, /muse/eeg, 
1525930598.685032, /muse/eeg, 
1525930598.685035, /muse/acc, -0.336486816406, 0.120178222656, 0.903686523438
1525930598.685039, /muse/acc, -0.331848144531, 0.120910644531, 0.902587890625
1525930598.685041, /muse/acc, -0.33154296875, 0.123413085938, 0.903442382812
1525930598.685059, /muse/eeg, 
1525930598.685053, /muse/eeg, 854.212463379, 878.79119873, 854.212463379, 868.717956543, nan, nan
1525930598.685067, /muse/eeg, 
1525930598.685062, /muse/eeg, 851.79486084, 875.970703125, 857.032958984, 834.065917969, nan, nan
1525930598.685077, /muse/eeg, 
1525930598.685071, /muse/eeg, 853.003662109, 875.567749023, 855.018310547, 840.109863281, nan, nan
1525930598.685085, /muse/eeg, 
1525930598.685080, /muse/eeg, 864.285705566, 875.970703125, 854.212463379, 878.79119873, nan, nan
1525930598.685094, /muse/eeg, 
1525930598.685088, /muse/eeg, 858.241760254, 878.388305664, 854.212463379, 872.344299316, nan, nan
1525930598.685102, /muse/eeg, 
1525930598.685097, /muse/eeg, 847.765563965, 874.761901855, 853.406616211, 839.706970215, nan, nan
1525930598.685111, /muse/eeg, 
1525930598.685106, /muse/eeg, 840.512817383, 872.747253418, 854.615356445, 832.454223633, nan, nan
1525930598.685120, /muse/eeg, 
1525930598.685114, /muse/eeg, 842.52746582, 874.761901855, 855.824157715, 852.197814941, nan, nan
1525930598.685128, /muse/eeg, 
1525930598.685123, /muse/eeg, 838.095214844, 873.956054688, 855.824157715, 868.717956543, nan, nan
1525930598.685137, /muse/eeg, 
1525930598.685132, /muse/eeg, 834.46887207, 871.538452148, 855.421264648, 844.945068359, nan, nan
1525930598.685147, /muse/eeg, 
1525930598.685141, /muse/eeg, 839.706970215, 873.956054688, 856.630065918, 819.963378906, nan, nan
1525930598.685156, /muse/eeg, 
1525930598.685150, /muse/eeg, 845.347961426, 875.970703125, 855.824157715, 849.780212402, nan, nan
1525930598.745905, /muse/eeg, 
1525930598.745889, /muse/eeg, 851.79486084, 877.985351562, 853.809509277, 878.79119873, nan, nan
1525930598.745924, /muse/eeg, 
1525930598.745917, /muse/eeg, 846.556762695, 878.388305664, 854.615356445, 860.659362793, nan, nan
1525930598.745933, /muse/eeg, 
1525930598.745927, /muse/eeg, 843.333312988, 871.538452148, 855.421264648, 829.230773926, nan, nan
1525930598.745943, /muse/eeg, 
1525930598.745936, /muse/eeg, 848.168518066, 871.94140625, 855.018310547, 833.260070801, nan, nan
1525930598.745952, /muse/eeg, 
1525930598.745946, /muse/eeg, 846.959716797, 873.956054688, 853.406616211, 866.300354004, nan, nan
1525930598.745966, /muse/eeg, 
1525930598.745960, /muse/eeg, 840.915771484, 869.120849609, 856.227111816, 862.67401123, nan, nan
1525930598.745976, /muse/eeg, 
1525930598.745970, /muse/eeg, 834.871765137, 863.479858398, 859.85345459, 830.439575195, nan, nan
1525930598.746408, /muse/eeg, 
1525930598.746552, /muse/eeg, 
1525930598.746555, /muse/eeg, 
1525930598.746557, /muse/eeg, 
1525930598.746559, /muse/eeg, 
1525930598.746561, /muse/eeg, 
1525930598.746563, /muse/eeg, 
1525930598.746565, /muse/eeg, 
1525930598.746567, /muse/eeg, 
1525930598.746568, /muse/eeg, 
1525930598.746570, /muse/eeg, 
1525930598.746572, /muse/eeg, 
1525930598.746574, /muse/eeg, 
1525930598.746575, /muse/eeg, 
1525930598.746577, /muse/eeg, 
1525930598.746579, /muse/eeg, 
1525930598.746581, /muse/eeg, 
1525930598.746583, /muse/eeg, 
1525930598.746650, /muse/eeg, 
1525930598.745980, /muse/eeg, 836.080566406, 868.315002441, 854.212463379, 825.201477051, nan, nan
1525930598.746665, /muse/eeg, 
1525930598.746655, /muse/eeg, 850.183166504, 874.358947754, 850.989013672, 852.197814941, nan, nan
1525930598.746675, /muse/eeg, 
1525930598.746669, /muse/eeg, 854.212463379, 871.94140625, 850.183166504, 863.479858398, nan, nan
1525930598.746685, /muse/eeg, 
1525930598.746679, /muse/eeg, 836.080566406, 871.135559082, 850.183166504, 831.648376465, nan, nan
1525930598.746695, /muse/eeg, 
1525930598.746688, /muse/eeg, 834.871765137, 872.344299316, 850.58605957, 820.366271973, nan, nan
1525930598.746702, /muse/eeg, 
1525930598.746703, /muse/eeg, 
1525930598.746705, /muse/eeg, 
1525930598.746708, /muse/acc, -0.331481933594, 0.124084472656, 0.906982421875
1525930598.746711, /muse/acc, -0.333984375, 0.1220703125, 0.908203125
1525930598.746713, /muse/acc, -0.335144042969, 0.123413085938, 0.9052734375
1525930598.767669, /muse/drlref, 1696337.0, 1697142.875
1525930598.767683, /muse/drlref, 1696337.0, 1697142.875
1525930598.767685, /muse/drlref, 1696337.0, 1697142.875
1525930598.767688, /muse/drlref, 1696337.0, 1697142.875
1525930598.767690, /muse/drlref, 1697142.875, 1697142.875
1525930598.767692, /muse/drlref, 1697142.875, 1697142.875
1525930598.787911, /muse/eeg, 
1525930598.787890, /muse/eeg, 850.58605957, 873.553100586, 850.989013672, 861.465209961, nan, nan
1525930598.787937, /muse/eeg, 
1525930598.787928, /muse/eeg, 848.571411133, 873.956054688, 848.974365234, 881.611694336, nan, nan
1525930598.787950, /muse/eeg, 
1525930598.787942, /muse/eeg, 837.289367676, 874.761901855, 848.571411133, 848.571411133, nan, nan
1525930598.787963, /muse/eeg, 
1525930598.787955, /muse/eeg, 838.901123047, 874.761901855, 852.197814941, 823.992675781, nan, nan
1525930598.787975, /muse/eeg, 
1525930598.787967, /muse/eeg, 847.765563965, 867.106201172, 853.809509277, 850.989013672, nan, nan
1525930598.787988, /muse/eeg, 
1525930598.787980, /muse/eeg, 869.523803711, 861.062255859, 855.824157715, 896.923095703, nan, nan
1525930598.788001, /muse/eeg, 
1525930598.787993, /muse/eeg, 866.703308105, 873.15020752, 853.809509277, 881.611694336, nan, nan
1525930598.788014, /muse/eeg, 
1525930598.788006, /muse/eeg, 840.512817383, 881.20880127, 849.377319336, 825.201477051, nan, nan
1525930598.788027, /muse/eeg, 
1525930598.788020, /muse/eeg, 836.483520508, 881.611694336, 846.959716797, 830.036621094, nan, nan
1525930598.788040, /muse/eeg, 
1525930598.788032, /muse/eeg, 840.109863281, 875.567749023, 848.571411133, 865.494506836, nan, nan
1525930598.788052, /muse/eeg, 
1525930598.788044, /muse/eeg, 837.692321777, 875.970703125, 848.571411133, 855.421264648, nan, nan
1525930598.788064, /muse/eeg, 
1525930598.788057, /muse/eeg, 828.827819824, 882.820495605, 843.73626709, 819.963378906, nan, nan
1525930598.788073, /muse/eeg, 
1525930598.788075, /muse/eeg, 
1525930598.788077, /muse/eeg, 
1525930598.788081, /muse/acc, -0.338806152344, 0.121765136719, 0.9033203125
1525930598.788086, /muse/acc, -0.335632324219, 0.122436523438, 0.904052734375
1525930598.788091, /muse/acc, -0.335998535156, 0.119689941406, 0.901306152344
1525930598.850049, /muse/eeg, 
1525930598.850032, /muse/eeg, 830.036621094, 882.417602539, 844.139221191, 826.41027832, nan, nan
1525930598.850070, /muse/eeg, 
1525930598.850063, /muse/eeg, 843.73626709, 882.820495605, 847.765563965, 869.120849609, nan, nan
1525930598.850082, /muse/eeg, 
1525930598.850075, /muse/eeg, 848.974365234, 879.597045898, 849.377319336, 883.626403809, nan, nan
1525930598.850093, /muse/eeg, 
1525930598.850086, /muse/eeg, 835.274719238, 876.373596191, 848.974365234, 850.989013672, nan, nan
1525930598.850104, /muse/eeg, 
1525930598.850097, /muse/eeg, 830.036621094, 874.761901855, 848.974365234, 828.021972656, nan, nan
1525930598.850122, /muse/eeg, 
1525930598.850114, /muse/eeg, 842.930419922, 872.747253418, 848.974365234, 853.406616211, nan, nan
1525930598.850133, /muse/eeg, 
1525930598.850126, /muse/eeg, 848.168518066, 873.956054688, 847.765563965, 873.956054688, nan, nan
1525930598.850146, /muse/eeg, 
1525930598.850139, /muse/eeg, 837.692321777, 875.567749023, 846.556762695, 849.780212402, nan, nan
1525930598.850157, /muse/eeg, 
1525930598.850150, /muse/eeg, 832.051269531, 874.358947754, 846.556762695, 823.58972168, nan, nan
1525930598.850629, /muse/eeg, 
1525930598.850788, /muse/eeg, 
1525930598.850792, /muse/eeg, 
1525930598.850794, /muse/eeg, 
1525930598.850796, /muse/eeg, 
1525930598.850798, /muse/eeg, 
1525930598.850800, /muse/eeg, 
1525930598.850802, /muse/eeg, 
1525930598.850804, /muse/eeg, 
1525930598.850806, /muse/eeg, 
1525930598.850808, /muse/eeg, 
1525930598.850810, /muse/eeg, 
1525930598.850812, /muse/eeg, 
1525930598.850814, /muse/eeg, 
1525930598.850816, /muse/eeg, 
1525930598.850818, /muse/eeg, 
1525930598.850825, /muse/eeg, 
1525930598.850828, /muse/eeg, 
1525930598.850971, /muse/eeg, 
1525930598.850162, /muse/eeg, 833.260070801, 872.747253418, 847.765563965, 834.46887207, nan, nan
1525930598.851002, /muse/eeg, 
1525930598.850989, /muse/eeg, 830.439575195, 873.956054688, 846.959716797, 855.421264648, nan, nan
1525930598.851018, /muse/eeg, 
1525930598.851007, /muse/eeg, 827.619018555, 871.94140625, 848.974365234, 850.58605957, nan, nan
1525930598.851027, /muse/eeg, 
1525930598.851029, /muse/eeg, 
1525930598.851031, /muse/eeg, 
1525930598.871882, /muse/acc, -0.335693359375, 0.11962890625, 0.905395507812
1525930598.871934, /muse/acc, -0.337768554688, 0.121154785156, 0.901733398438
1525930598.871945, /muse/acc, -0.335144042969, 0.122314453125, 0.904602050781
1525930598.892128, /muse/eeg, 
1525930598.892098, /muse/eeg, 823.58972168, 867.912109375, 850.183166504, 820.366271973, nan, nan
1525930598.892167, /muse/eeg, 
1525930598.892152, /muse/eeg, 828.424926758, 870.73260498, 850.58605957, 827.216125488, nan, nan
1525930598.892189, /muse/eeg, 
1525930598.892175, /muse/eeg, 834.065917969, 872.747253418, 850.989013672, 861.465209961, nan, nan
1525930598.892210, /muse/eeg, 
1525930598.892197, /muse/eeg, 826.813171387, 870.329650879, 851.79486084, 858.644714355, nan, nan
1525930598.892234, /muse/eeg, 
1525930598.892220, /muse/eeg, 830.439575195, 869.120849609, 855.018310547, 832.051269531, nan, nan
1525930598.892257, /muse/eeg, 
1525930598.892243, /muse/eeg, 833.260070801, 868.315002441, 855.421264648, 828.021972656, nan, nan
1525930598.892282, /muse/eeg, 
1525930598.892267, /muse/eeg, 834.871765137, 870.329650879, 855.018310547, 850.183166504, nan, nan
1525930598.892305, /muse/eeg, 
1525930598.892291, /muse/eeg, 827.619018555, 874.761901855, 852.197814941, 866.703308105, nan, nan
1525930598.892328, /muse/eeg, 
1525930598.892314, /muse/eeg, 829.633728027, 869.120849609, 853.406616211, 845.750915527, nan, nan
1525930598.892351, /muse/eeg, 
1525930598.892337, /muse/eeg, 834.065917969, 867.912109375, 855.824157715, 826.41027832, nan, nan
1525930598.892374, /muse/eeg, 
1525930598.892360, /muse/eeg, 825.604370117, 875.970703125, 855.018310547, 837.289367676, nan, nan
1525930598.892397, /muse/eeg, 
1525930598.892383, /muse/eeg, 830.036621094, 875.567749023, 854.615356445, 852.600708008, nan, nan
1525930598.912675, /muse/eeg, 
1525930598.912688, /muse/eeg, 
1525930598.912689, /muse/eeg, 
1525930598.912693, /muse/acc, -0.332458496094, 0.124755859375, 0.9072265625
1525930598.912699, /muse/acc, -0.332580566406, 0.12353515625, 0.906066894531
1525930598.912702, /muse/acc, -0.332275390625, 0.122924804688, 0.905883789062
1525930598.933261, /muse/eeg, 
1525930598.933245, /muse/eeg, 828.021972656, 871.538452148, 853.003662109, 837.692321777, nan, nan
1525930598.933281, /muse/eeg, 
1525930598.933275, /muse/eeg, 817.948730469, 871.94140625, 851.79486084, 809.084228516, nan, nan
1525930598.933290, /muse/eeg, 
1525930598.933285, /muse/eeg, 815.53112793, 872.747253418, 850.183166504, 824.395629883, nan, nan
1525930598.933300, /muse/eeg, 
1525930598.933294, /muse/eeg, 828.827819824, 871.135559082, 847.362609863, 869.120849609, nan, nan
1525930598.933309, /muse/eeg, 
1525930598.933303, /muse/eeg, 831.245422363, 867.912109375, 852.197814941, 855.018310547, nan, nan
1525930598.933318, /muse/eeg, 
1525930598.933312, /muse/eeg, 813.516479492, 864.285705566, 857.435913086, 798.20513916, nan, nan
1525930598.933328, /muse/eeg, 
1525930598.933321, /muse/eeg, 811.098876953, 870.73260498, 855.824157715, 804.249084473, nan, nan
1525930598.933337, /muse/eeg, 
1525930598.933331, /muse/eeg, 829.230773926, 874.761901855, 853.003662109, 853.003662109, nan, nan
1525930598.933347, /muse/eeg, 
1525930598.933341, /muse/eeg, 844.139221191, 871.94140625, 854.212463379, 859.047607422, nan, nan
1525930598.933356, /muse/eeg, 
1525930598.933351, /muse/eeg, 823.58972168, 873.553100586, 854.212463379, 817.142883301, nan, nan
1525930598.933366, /muse/eeg, 
1525930598.933360, /muse/eeg, 811.501831055, 874.358947754, 852.197814941, 802.637390137, nan, nan
1525930598.933857, /muse/eeg, 
1525930598.934044, /muse/eeg, 
1525930598.934051, /muse/eeg, 
1525930598.934054, /muse/eeg, 
1525930598.934057, /muse/eeg, 
1525930598.934061, /muse/eeg, 
1525930598.934064, /muse/eeg, 
1525930598.934067, /muse/eeg, 
1525930598.934070, /muse/eeg, 
1525930598.934073, /muse/eeg, 
1525930598.934076, /muse/eeg, 
1525930598.934079, /muse/eeg, 
1525930598.934083, /muse/eeg, 
1525930598.934086, /muse/eeg, 
1525930598.934089, /muse/eeg, 
1525930598.934092, /muse/eeg, 
1525930598.934096, /muse/eeg, 
1525930598.934100, /muse/eeg, 
1525930598.934238, /muse/eeg, 
1525930598.933370, /muse/eeg, 826.007324219, 869.926757812, 852.197814941, 832.454223633, nan, nan
1525930598.974539, /muse/drlref, 1696337.0, 1697142.875
1525930598.974554, /muse/drlref, 1697142.875, 1697142.875
1525930598.974556, /muse/drlref, 1696337.0, 1697142.875
1525930598.974560, /muse/drlref, 1696337.0, 1697142.875
1525930598.974562, /muse/drlref, 1697142.875, 1697142.875
1525930598.974564, /muse/drlref, 1696337.0, 1697142.875
1525930598.974589, /muse/eeg, 
1525930598.974577, /muse/eeg, 831.245422363, 870.329650879, 850.58605957, 852.197814941, nan, nan
1525930598.974598, /muse/eeg, 
1525930598.974592, /muse/eeg, 830.842468262, 874.358947754, 852.600708008, 827.216125488, nan, nan
1525930598.974607, /muse/eeg, 
1525930598.974601, /muse/eeg, 828.424926758, 871.135559082, 852.600708008, 800.219787598, nan, nan
1525930598.974617, /muse/eeg, 
1525930598.974611, /muse/eeg, 846.556762695, 870.73260498, 850.58605957, 833.260070801, nan, nan
1525930598.974626, /muse/eeg, 
1525930598.974620, /muse/eeg, 844.542114258, 874.761901855, 854.212463379, 865.494506836, nan, nan
1525930598.974635, /muse/eeg, 
1525930598.974629, /muse/eeg, 823.58972168, 874.761901855, 854.615356445, 839.304016113, nan, nan
1525930598.974644, /muse/eeg, 
1525930598.974639, /muse/eeg, 832.454223633, 874.761901855, 851.391967773, 821.575073242, nan, nan
1525930598.974653, /muse/eeg, 
1525930598.974648, /muse/eeg, 841.318664551, 873.553100586, 849.780212402, 838.095214844, nan, nan
1525930598.974662, /muse/eeg, 
1525930598.974657, /muse/eeg, 843.333312988, 871.135559082, 850.989013672, 865.494506836, nan, nan
1525930598.974671, /muse/eeg, 
1525930598.974665, /muse/eeg, 842.52746582, 871.94140625, 849.780212402, 861.062255859, nan, nan
1525930598.974680, /muse/eeg, 
1525930598.974675, /muse/eeg, 843.73626709, 873.15020752, 850.989013672, 831.245422363, nan, nan
1525930598.974689, /muse/eeg, 
1525930598.974683, /muse/eeg, 836.886474609, 873.956054688, 850.58605957, 836.886474609, nan, nan
1525930598.974694, /muse/eeg, 
1525930598.974696, /muse/eeg, 
1525930598.974697, /muse/eeg, 
1525930598.996028, /muse/acc, -0.33447265625, 0.123229980469, 0.905090332031
1525930598.996070, /muse/acc, -0.332580566406, 0.12255859375, 0.905212402344
1525930598.996080, /muse/acc, -0.33056640625, 0.123596191406, 0.901306152344
1525930599.016321, /muse/eeg, 
1525930599.016274, /muse/eeg, 836.080566406, 873.15020752, 847.765563965, 859.85345459, nan, nan
1525930599.016389, /muse/eeg, 
1525930599.016361, /muse/eeg, 834.46887207, 875.970703125, 847.765563965, 859.047607422, nan, nan
1525930599.016431, /muse/eeg, 
1525930599.016405, /muse/eeg, 838.095214844, 875.970703125, 849.377319336, 833.663024902, nan, nan
1525930599.016473, /muse/eeg, 
1525930599.016447, /muse/eeg, 849.377319336, 874.358947754, 849.780212402, 827.619018555, nan, nan
1525930599.016516, /muse/eeg, 
1525930599.016490, /muse/eeg, 843.73626709, 875.567749023, 846.959716797, 853.406616211, nan, nan
1525930599.016560, /muse/eeg, 
1525930599.016534, /muse/eeg, 839.304016113, 872.344299316, 846.153869629, 862.271057129, nan, nan
1525930599.016602, /muse/eeg, 
1525930599.016576, /muse/eeg, 828.424926758, 869.926757812, 848.168518066, 830.439575195, nan, nan
1525930599.016664, /muse/eeg, 
1525930599.016637, /muse/eeg, 823.58972168, 864.688659668, 848.571411133, 806.666687012, nan, nan
1525930599.016716, /muse/eeg, 
1525930599.016690, /muse/eeg, 833.260070801, 866.703308105, 850.58605957, 834.46887207, nan, nan
1525930599.016758, /muse/eeg, 
1525930599.016732, /muse/eeg, 839.706970215, 873.15020752, 850.58605957, 864.285705566, nan, nan
1525930599.016799, /muse/eeg, 
1525930599.016774, /muse/eeg, 843.73626709, 871.135559082, 847.765563965, 843.333312988, nan, nan
1525930599.016839, /muse/eeg, 
1525930599.016814, /muse/eeg, 834.871765137, 869.926757812, 848.168518066, 813.516479492, nan, nan
1525930599.036980, /muse/eeg, 
1525930599.036993, /muse/eeg, 
1525930599.036995, /muse/eeg, 
1525930599.037000, /muse/acc, -0.332214355469, 0.123229980469, 0.903137207031
1525930599.037006, /muse/acc, -0.331909179688, 0.122375488281, 0.907165527344
1525930599.037008, /muse/acc, -0.331420898438, 0.122436523438, 0.906188964844
1525930599.057094, /muse/eeg, 
1525930599.057079, /muse/eeg, 840.915771484, 874.761901855, 848.168518066, 827.619018555, nan, nan
1525930599.057509, /muse/eeg, 
1525930599.057619, /muse/eeg, 
1525930599.057622, /muse/eeg, 
1525930599.057623, /muse/eeg, 
1525930599.057625, /muse/eeg, 
1525930599.057627, /muse/eeg, 
1525930599.057629, /muse/eeg, 
1525930599.057630, /muse/eeg, 
1525930599.057632, /muse/eeg, 
1525930599.057634, /muse/eeg, 
1525930599.057636, /muse/eeg, 
1525930599.057637, /muse/eeg, 
1525930599.057639, /muse/eeg, 
1525930599.057641, /muse/eeg, 
1525930599.057642, /muse/eeg, 
1525930599.057643, /muse/eeg, 
1525930599.057645, /muse/eeg, 
1525930599.057646, /muse/eeg, 
1525930599.057699, /muse/eeg, 
1525930599.057105, /muse/eeg, 847.362609863, 874.761901855, 849.377319336, 866.703308105, nan, nan
1525930599.057715, /muse/eeg, 
1525930599.057705, /muse/eeg, 835.274719238, 870.329650879, 852.197814941, 860.659362793, nan, nan
1525930599.057725, /muse/eeg, 
1525930599.057719, /muse/eeg, 835.67767334, 871.538452148, 850.989013672, 819.560424805, nan, nan
1525930599.057734, /muse/eeg, 
1525930599.057728, /muse/eeg, 831.245422363, 869.523803711, 852.600708008, 815.934082031, nan, nan
1525930599.057744, /muse/eeg, 
1525930599.057738, /muse/eeg, 814.725280762, 864.285705566, 855.018310547, 843.73626709, nan, nan
1525930599.057753, /muse/eeg, 
1525930599.057747, /muse/eeg, 826.007324219, 859.450561523, 854.212463379, 857.838806152, nan, nan
1525930599.057770, /muse/eeg, 
1525930599.057758, /muse/eeg, 828.021972656, 861.465209961, 853.809509277, 836.886474609, nan, nan
1525930599.057786, /muse/eeg, 
1525930599.057777, /muse/eeg, 832.454223633, 868.315002441, 853.003662109, 824.395629883, nan, nan
1525930599.057799, /muse/eeg, 
1525930599.057792, /muse/eeg, 836.080566406, 870.73260498, 852.600708008, 841.721618652, nan, nan
1525930599.057808, /muse/eeg, 
1525930599.057803, /muse/eeg, 822.783874512, 870.329650879, 849.377319336, 853.809509277, nan, nan
1525930599.057818, /muse/eeg, 
1525930599.057812, /muse/eeg, 828.827819824, 869.120849609, 848.571411133, 834.065917969, nan, nan
1525930599.099429, /muse/eeg, 
1525930599.099440, /muse/eeg, 
1525930599.099442, /muse/eeg, 
1525930599.099446, /muse/acc, -0.332397460938, 0.12255859375, 0.904174804688
1525930599.099452, /muse/acc, -0.332397460938, 0.121276855469, 0.905639648438
1525930599.099455, /muse/acc, -0.334350585938, 0.120971679688, 0.902648925781
1525930599.119717, /muse/eeg, 
1525930599.119701, /muse/eeg, 826.41027832, 868.315002441, 848.168518066, 813.113525391, nan, nan
1525930599.119738, /muse/eeg, 
1525930599.119731, /muse/eeg, 830.036621094, 867.912109375, 847.362609863, 838.498168945, nan, nan
1525930599.119747, /muse/eeg, 
1525930599.119741, /muse/eeg, 832.857116699, 867.912109375, 848.571411133, 867.106201172, nan, nan
1525930599.119756, /muse/eeg, 
1525930599.119750, /muse/eeg, 829.633728027, 868.315002441, 849.377319336, 850.183166504, nan, nan
1525930599.119765, /muse/eeg, 
1525930599.119760, /muse/eeg, 826.007324219, 867.509155273, 849.780212402, 811.501831055, nan, nan
1525930599.119779, /muse/eeg, 
1525930599.119773, /muse/eeg, 836.886474609, 866.703308105, 849.780212402, 821.978027344, nan, nan
1525930599.119789, /muse/eeg, 
1525930599.119783, /muse/eeg, 838.901123047, 867.912109375, 849.780212402, 861.465209961, nan, nan
1525930599.119799, /muse/eeg, 
1525930599.119793, /muse/eeg, 819.963378906, 867.509155273, 853.406616211, 856.227111816, nan, nan
1525930599.119809, /muse/eeg, 
1525930599.119803, /muse/eeg, 814.32232666, 868.717956543, 855.421264648, 812.710632324, nan, nan
1525930599.119819, /muse/eeg, 
1525930599.119813, /muse/eeg, 825.201477051, 869.523803711, 854.615356445, 802.234436035, nan, nan
1525930599.119828, /muse/eeg, 
1525930599.119823, /muse/eeg, 832.857116699, 870.329650879, 856.630065918, 847.765563965, nan, nan
1525930599.119838, /muse/eeg, 
1525930599.119832, /muse/eeg, 825.604370117, 867.912109375, 858.644714355, 867.912109375, nan, nan
1525930599.160041, /muse/eeg, 
1525930599.160059, /muse/eeg, 
1525930599.160062, /muse/eeg, 
1525930599.160071, /muse/acc, -0.334533691406, 0.121032714844, 0.905395507812
1525930599.160081, /muse/acc, -0.333923339844, 0.12060546875, 0.90673828125
1525930599.160085, /muse/acc, -0.33251953125, 0.123657226562, 0.908264160156
1525930599.160131, /muse/eeg, 
1525930599.160109, /muse/eeg, 815.934082031, 867.106201172, 862.67401123, 828.827819824, nan, nan
1525930599.160152, /muse/eeg, 
1525930599.160140, /muse/eeg, 819.157531738, 866.703308105, 862.67401123, 799.816833496, nan, nan
1525930599.160171, /muse/eeg, 
1525930599.160160, /muse/eeg, 811.501831055, 861.868103027, 860.256408691, 818.754577637, nan, nan
1525930599.160869, /muse/eeg, 
1525930599.161106, /muse/eeg, 
1525930599.161111, /muse/eeg, 
1525930599.161115, /muse/eeg, 
1525930599.161118, /muse/eeg, 
1525930599.161121, /muse/eeg, 
1525930599.161124, /muse/eeg, 
1525930599.161127, /muse/eeg, 
1525930599.161130, /muse/eeg, 
1525930599.161133, /muse/eeg, 
1525930599.161144, /muse/eeg, 
1525930599.161148, /muse/eeg, 
1525930599.161151, /muse/eeg, 
1525930599.161155, /muse/eeg, 
1525930599.161158, /muse/eeg, 
1525930599.161162, /muse/eeg, 
1525930599.161166, /muse/eeg, 
1525930599.161169, /muse/eeg, 
1525930599.161334, /muse/eeg, 
1525930599.160179, /muse/eeg, 803.443237305, 864.285705566, 863.8828125, 838.498168945, nan, nan
1525930599.161362, /muse/eeg, 
1525930599.161346, /muse/eeg, 788.937744141, 854.615356445, 863.8828125, 801.025634766, nan, nan
1525930599.161382, /muse/eeg, 
1525930599.161370, /muse/eeg, 777.655700684, 840.109863281, 869.523803711, 771.20880127, nan, nan
1525930599.161401, /muse/eeg, 
1525930599.161389, /muse/eeg, 773.223449707, 844.139221191, 877.179504395, 774.835144043, nan, nan
1525930599.161421, /muse/eeg, 
1525930599.161409, /muse/eeg, 749.85345459, 863.479858398, 873.956054688, 771.20880127, nan, nan
1525930599.161439, /muse/eeg, 
1525930599.161428, /muse/eeg, 717.619018555, 861.062255859, 878.388305664, 746.227111816, nan, nan
1525930599.161458, /muse/eeg, 
1525930599.161447, /muse/eeg, 701.098876953, 853.406616211, 882.820495605, 691.428588867, nan, nan
1525930599.161477, /muse/eeg, 
1525930599.161466, /muse/eeg, 693.846130371, 859.047607422, 878.79119873, 677.32598877, nan, nan
1525930599.161499, /muse/eeg, 
1525930599.161487, /muse/eeg, 686.996337891, 855.824157715, 877.985351562, 700.695983887, nan, nan
1525930599.181573, /muse/drlref, 1696337.0, 1697142.875
1525930599.181589, /muse/drlref, 1697142.875, 1697142.875
1525930599.181591, /muse/drlref, 1696337.0, 1697142.875
1525930599.181595, /muse/drlref, 1697142.875, 1697142.875
1525930599.181597, /muse/drlref, 1696337.0, 1697142.875
1525930599.181598, /muse/drlref, 1696337.0, 1697142.875
1525930599.222601, /muse/eeg, 
1525930599.222581, /muse/eeg, 677.32598877, 856.630065918, 871.135559082, 686.996337891, nan, nan
1525930599.222624, /muse/eeg, 
1525930599.222615, /muse/eeg, 662.417602539, 859.450561523, 864.688659668, 639.85345459, nan, nan
1525930599.222637, /muse/eeg, 
1525930599.222629, /muse/eeg, 664.432250977, 859.450561523, 863.076904297, 630.58605957, nan, nan
1525930599.222649, /muse/eeg, 
1525930599.222641, /muse/eeg, 657.985351562, 858.241760254, 861.868103027, 651.135559082, nan, nan
1525930599.222663, /muse/eeg, 
1525930599.222655, /muse/eeg, 662.417602539, 857.838806152, 858.644714355, 665.641052246, nan, nan
1525930599.222677, /muse/eeg, 
1525930599.222669, /muse/eeg, 676.1171875, 858.644714355, 857.435913086, 651.538452148, nan, nan
1525930599.222690, /muse/eeg, 
1525930599.222682, /muse/eeg, 670.073242188, 862.271057129, 855.421264648, 635.018310547, nan, nan
1525930599.222704, /muse/eeg, 
1525930599.222696, /muse/eeg, 684.175842285, 869.926757812, 849.377319336, 673.699645996, nan, nan
1525930599.222717, /muse/eeg, 
1525930599.222709, /muse/eeg, 713.58972168, 875.164855957, 841.318664551, 709.560424805, nan, nan
1525930599.222730, /muse/eeg, 
1525930599.222722, /muse/eeg, 721.648376465, 878.388305664, 836.483520508, 703.113525391, nan, nan
1525930599.222743, /muse/eeg, 
1525930599.222735, /muse/eeg, 732.52746582, 878.388305664, 836.080566406, 692.234436035, nan, nan
1525930599.222757, /muse/eeg, 
1525930599.222748, /muse/eeg, 742.600708008, 883.626403809, 832.051269531, 716.41027832, nan, nan
1525930599.222765, /muse/eeg, 
1525930599.222768, /muse/eeg, 
1525930599.222770, /muse/eeg, 
1525930599.222774, /muse/acc, -0.326171875, 0.126281738281, 0.913513183594
1525930599.222779, /muse/acc, -0.326965332031, 0.125061035156, 0.912536621094
1525930599.222783, /muse/acc, -0.328369140625, 0.12646484375, 0.908569335938
1525930599.263675, /muse/eeg, 
1525930599.263658, /muse/eeg, 745.018310547, 884.029296875, 832.454223633, 767.582397461, nan, nan
1525930599.263694, /muse/eeg, 
1525930599.263687, /muse/eeg, 761.538452148, 884.029296875, 832.857116699, 778.05859375, nan, nan
1525930599.263703, /muse/eeg, 
1525930599.263697, /muse/eeg, 784.908447266, 884.835144043, 830.842468262, 765.970703125, nan, nan
1525930599.263712, /muse/eeg, 
1525930599.263706, /muse/eeg, 798.608032227, 887.252746582, 825.201477051, 776.446899414, nan, nan
1525930599.263722, /muse/eeg, 
1525930599.263716, /muse/eeg, 811.098876953, 891.282043457, 823.992675781, 809.487182617, nan, nan
1525930599.264146, /muse/eeg, 
1525930599.264318, /muse/eeg, 
1525930599.264321, /muse/eeg, 
1525930599.264323, /muse/eeg, 
1525930599.264325, /muse/eeg, 
1525930599.264327, /muse/eeg, 
1525930599.264329, /muse/eeg, 
1525930599.264330, /muse/eeg, 
1525930599.264332, /muse/eeg, 
1525930599.264334, /muse/eeg, 
1525930599.264335, /muse/eeg, 
1525930599.264337, /muse/eeg, 
1525930599.264339, /muse/eeg, 
1525930599.264340, /muse/eeg, 
1525930599.264342, /muse/eeg, 
1525930599.264344, /muse/eeg, 
1525930599.264346, /muse/eeg, 
1525930599.264347, /muse/eeg, 
1525930599.264472, /muse/eeg, 
1525930599.263725, /muse/eeg, 818.754577637, 886.446899414, 826.813171387, 832.857116699, nan, nan
1525930599.264486, /muse/eeg, 
1525930599.264477, /muse/eeg, 830.439575195, 886.043945312, 826.41027832, 819.963378906, nan, nan
1525930599.264497, /muse/eeg, 
1525930599.264491, /muse/eeg, 843.73626709, 894.505493164, 824.798522949, 813.516479492, nan, nan
1525930599.264507, /muse/eeg, 
1525930599.264501, /muse/eeg, 848.974365234, 901.355285645, 822.380981445, 842.930419922, nan, nan
1525930599.264516, /muse/eeg, 
1525930599.264510, /muse/eeg, 856.630065918, 894.505493164, 825.604370117, 877.582397461, nan, nan
1525930599.264525, /muse/eeg, 
1525930599.264519, /muse/eeg, 853.809509277, 892.490844727, 827.216125488, 855.018310547, nan, nan
1525930599.264535, /muse/eeg, 
1525930599.264529, /muse/eeg, 852.600708008, 896.520141602, 825.604370117, 827.619018555, nan, nan
1525930599.264543, /muse/eeg, 
1525930599.264545, /muse/eeg, 
1525930599.264546, /muse/eeg, 
1525930599.264549, /muse/acc, -0.326538085938, 0.126220703125, 0.904541015625
1525930599.264552, /muse/acc, -0.325744628906, 0.125183105469, 0.904968261719
1525930599.264555, /muse/acc, -0.329956054688, 0.120910644531, 0.90283203125
1525930599.305931, /muse/eeg, 
1525930599.305915, /muse/eeg, 868.717956543, 892.087890625, 825.201477051, 860.256408691, nan, nan
1525930599.305952, /muse/eeg, 
1525930599.305945, /muse/eeg, 886.84979248, 895.714294434, 823.58972168, 895.311340332, nan, nan
1525930599.305961, /muse/eeg, 
1525930599.305955, /muse/eeg, 892.490844727, 902.161193848, 820.366271973, 881.611694336, nan, nan
1525930599.305970, /muse/eeg, 
1525930599.305965, /muse/eeg, 894.102539062, 900.549438477, 817.948730469, 859.047607422, nan, nan
1525930599.305980, /muse/eeg, 
1525930599.305974, /muse/eeg, 899.743591309, 898.131896973, 819.560424805, 877.582397461, nan, nan
1525930599.305989, /muse/eeg, 
1525930599.305983, /muse/eeg, 906.593383789, 896.1171875, 821.172180176, 914.249084473, nan, nan
1525930599.306004, /muse/eeg, 
1525930599.305998, /muse/eeg, 912.234436035, 898.534790039, 822.783874512, 928.351623535, nan, nan
1525930599.306014, /muse/eeg, 
1525930599.306008, /muse/eeg, 919.890136719, 904.175842285, 822.783874512, 904.175842285, nan, nan
1525930599.306024, /muse/eeg, 
1525930599.306018, /muse/eeg, 919.084228516, 901.355285645, 826.007324219, 894.102539062, nan, nan
1525930599.306034, /muse/eeg, 
1525930599.306028, /muse/eeg, 928.754577637, 902.564086914, 825.201477051, 925.128234863, nan, nan
1525930599.306044, /muse/eeg, 
1525930599.306038, /muse/eeg, 928.351623535, 900.952392578, 823.186828613, 935.604370117, nan, nan
1525930599.306054, /muse/eeg, 
1525930599.306048, /muse/eeg, 914.652038574, 897.728942871, 828.424926758, 906.190490723, nan, nan
1525930599.327181, /muse/eeg, 
1525930599.327190, /muse/eeg, 
1525930599.327192, /muse/eeg, 
1525930599.327196, /muse/acc, -0.336669921875, 0.114135742188, 0.901306152344
1525930599.327201, /muse/acc, -0.341003417969, 0.112487792969, 0.898559570312
1525930599.327203, /muse/acc, -0.337036132812, 0.111022949219, 0.897888183594
1525930599.367949, /muse/eeg, 
1525930599.367918, /muse/eeg, 916.26373291, 902.161193848, 828.424926758, 893.699645996, nan, nan
1525930599.367990, /muse/eeg, 
1525930599.367975, /muse/eeg, 933.58972168, 904.981689453, 822.380981445, 926.336975098, nan, nan
1525930599.368012, /muse/eeg, 
1525930599.367998, /muse/eeg, 944.065917969, 904.578735352, 824.798522949, 956.556762695, nan, nan
1525930599.368047, /muse/eeg, 
1525930599.368033, /muse/eeg, 930.366271973, 900.952392578, 834.46887207, 935.604370117, nan, nan
1525930599.368071, /muse/eeg, 
1525930599.368056, /muse/eeg, 925.128234863, 898.534790039, 838.095214844, 910.219787598, nan, nan
1525930599.368093, /muse/eeg, 
1525930599.368080, /muse/eeg, 933.992675781, 900.549438477, 838.095214844, 931.172180176, nan, nan
1525930599.368115, /muse/eeg, 
1525930599.368102, /muse/eeg, 937.216125488, 900.14654541, 838.498168945, 952.124511719, nan, nan
1525930599.369132, /muse/eeg, 
1525930599.369322, /muse/eeg, 
1525930599.369329, /muse/eeg, 
1525930599.369333, /muse/eeg, 
1525930599.369337, /muse/eeg, 
1525930599.369341, /muse/eeg, 
1525930599.369344, /muse/eeg, 
1525930599.369348, /muse/eeg, 
1525930599.369352, /muse/eeg, 
1525930599.369356, /muse/eeg, 
1525930599.369360, /muse/eeg, 
1525930599.369370, /muse/eeg, 
1525930599.369375, /muse/eeg, 
1525930599.369379, /muse/eeg, 
1525930599.369383, /muse/eeg, 
1525930599.369387, /muse/eeg, 
1525930599.369391, /muse/eeg, 
1525930599.369395, /muse/eeg, 
1525930599.369578, /muse/eeg, 
1525930599.368125, /muse/eeg, 940.036621094, 894.908447266, 838.901123047, 941.648376465, nan, nan
1525930599.369612, /muse/eeg, 
1525930599.369591, /muse/eeg, 927.948730469, 893.699645996, 836.080566406, 916.666687012, nan, nan
1525930599.369635, /muse/eeg, 
1525930599.369621, /muse/eeg, 930.769226074, 898.937744141, 834.46887207, 917.875488281, nan, nan
1525930599.369658, /muse/eeg, 
1525930599.369644, /muse/eeg, 938.021972656, 900.14654541, 835.274719238, 946.483520508, nan, nan
1525930599.369681, /muse/eeg, 
1525930599.369667, /muse/eeg, 929.560424805, 897.728942871, 838.901123047, 943.663024902, nan, nan
1525930599.369699, /muse/eeg, 
1525930599.369703, /muse/eeg, 
1525930599.369707, /muse/eeg, 
1525930599.369714, /muse/acc, -0.333618164062, 0.109313964844, 0.911437988281
1525930599.369721, /muse/acc, -0.329345703125, 0.109802246094, 0.911071777344
1525930599.369728, /muse/acc, -0.324768066406, 0.113220214844, 0.9072265625
1525930599.389769, /muse/drlref, 1697142.875, 1697142.875
1525930599.389784, /muse/drlref, 1696337.0, 1697142.875
1525930599.389786, /muse/drlref, 1696337.0, 1697142.875
1525930599.389790, /muse/drlref, 1697142.875, 1697142.875
1525930599.389792, /muse/drlref, 1696337.0, 1697142.875
1525930599.389794, /muse/drlref, 1697142.875, 1697142.875
1525930599.389822, /muse/eeg, 
1525930599.389808, /muse/eeg, 919.487182617, 894.908447266, 842.930419922, 905.787536621, nan, nan
1525930599.389833, /muse/eeg, 
1525930599.389827, /muse/eeg, 920.293029785, 893.699645996, 845.347961426, 899.340637207, nan, nan
1525930599.389842, /muse/eeg, 
1525930599.389836, /muse/eeg, 931.172180176, 892.087890625, 847.362609863, 942.051269531, nan, nan
1525930599.389851, /muse/eeg, 
1525930599.389846, /muse/eeg, 917.875488281, 892.490844727, 850.183166504, 952.124511719, nan, nan
1525930599.389861, /muse/eeg, 
1525930599.389855, /muse/eeg, 903.772888184, 892.893798828, 852.600708008, 904.981689453, nan, nan
1525930599.389870, /muse/eeg, 
1525930599.389865, /muse/eeg, 908.608032227, 889.670349121, 852.197814941, 891.282043457, nan, nan
1525930599.389880, /muse/eeg, 
1525930599.389874, /muse/eeg, 913.040283203, 890.879150391, 850.183166504, 919.890136719, nan, nan
1525930599.389889, /muse/eeg, 
1525930599.389884, /muse/eeg, 913.040283203, 892.087890625, 850.989013672, 938.021972656, nan, nan
1525930599.389899, /muse/eeg, 
1525930599.389893, /muse/eeg, 911.025634766, 894.102539062, 850.58605957, 911.025634766, nan, nan
1525930599.389908, /muse/eeg, 
1525930599.389903, /muse/eeg, 912.234436035, 891.282043457, 848.974365234, 879.194152832, nan, nan
1525930599.389918, /muse/eeg, 
1525930599.389912, /muse/eeg, 905.384643555, 888.864440918, 851.391967773, 901.758239746, nan, nan
1525930599.389927, /muse/eeg, 
1525930599.389921, /muse/eeg, 902.564086914, 890.476196289, 848.571411133, 935.201477051, nan, nan
1525930599.450211, /muse/eeg, 
1525930599.450194, /muse/eeg, 898.937744141, 893.296691895, 846.153869629, 914.652038574, nan, nan
1525930599.450233, /muse/eeg, 
1525930599.450226, /muse/eeg, 883.223449707, 888.05859375, 851.391967773, 882.820495605, nan, nan
1525930599.450244, /muse/eeg, 
1525930599.450237, /muse/eeg, 887.252746582, 878.79119873, 854.615356445, 892.893798828, nan, nan
1525930599.450254, /muse/eeg, 
1525930599.450247, /muse/eeg, 891.684997559, 883.626403809, 851.79486084, 918.278381348, nan, nan
1525930599.450264, /muse/eeg, 
1525930599.450257, /muse/eeg, 892.087890625, 887.252746582, 848.571411133, 911.831481934, nan, nan
1525930599.450280, /muse/eeg, 
1525930599.450274, /muse/eeg, 885.641052246, 882.014648438, 849.377319336, 878.79119873, nan, nan
1525930599.450291, /muse/eeg, 
1525930599.450284, /muse/eeg, 870.329650879, 877.582397461, 851.79486084, 876.373596191, nan, nan
1525930599.450302, /muse/eeg, 
1525930599.450295, /muse/eeg, 881.611694336, 878.79119873, 852.600708008, 906.190490723, nan, nan
1525930599.450312, /muse/eeg, 
1525930599.450306, /muse/eeg, 887.252746582, 884.432250977, 851.391967773, 911.025634766, nan, nan
1525930599.450839, /muse/eeg, 
1525930599.451023, /muse/eeg, 
1525930599.451029, /muse/eeg, 
1525930599.451032, /muse/eeg, 
1525930599.451034, /muse/eeg, 
1525930599.451037, /muse/eeg, 
1525930599.451039, /muse/eeg, 
1525930599.451042, /muse/eeg, 
1525930599.451043, /muse/eeg, 
1525930599.451046, /muse/eeg, 
1525930599.451049, /muse/eeg, 
1525930599.451051, /muse/eeg, 
1525930599.451053, /muse/eeg, 
1525930599.451056, /muse/eeg, 
1525930599.451062, /muse/eeg, 
1525930599.451064, /muse/eeg, 
1525930599.451067, /muse/eeg, 
1525930599.451070, /muse/eeg, 
1525930599.451194, /muse/eeg, 
1525930599.450322, /muse/eeg, 882.417602539, 884.432250977, 849.780212402, 886.043945312, nan, nan
1525930599.451218, /muse/eeg, 
1525930599.451203, /muse/eeg, 878.388305664, 886.043945312, 846.959716797, 867.106201172, nan, nan
1525930599.451231, /muse/eeg, 
1525930599.451223, /muse/eeg, 878.388305664, 888.05859375, 849.377319336, 875.970703125, nan, nan
1525930599.451242, /muse/eeg, 
1525930599.451244, /muse/eeg, 
1525930599.451246, /muse/eeg, 
1525930599.451249, /muse/acc, -0.324401855469, 0.115234375, 0.9052734375
1525930599.451253, /muse/acc, -0.324523925781, 0.113159179688, 0.906616210938
1525930599.451256, /muse/acc, -0.326416015625, 0.113830566406, 0.904113769531
1525930599.491837, /muse/eeg, 
1525930599.491796, /muse/eeg, 883.223449707, 887.252746582, 846.959716797, 900.952392578, nan, nan
1525930599.491887, /muse/eeg, 
1525930599.491867, /muse/eeg, 868.717956543, 883.223449707, 844.945068359, 881.611694336, nan, nan
1525930599.491919, /muse/eeg, 
1525930599.491900, /muse/eeg, 868.315002441, 877.582397461, 852.197814941, 855.018310547, nan, nan
1525930599.491952, /muse/eeg, 
1525930599.491933, /muse/eeg, 869.120849609, 880.0, 852.197814941, 868.315002441, nan, nan
1525930599.491983, /muse/eeg, 
1525930599.491964, /muse/eeg, 851.79486084, 882.417602539, 850.989013672, 889.26739502, nan, nan
1525930599.492026, /muse/eeg, 
1525930599.491996, /muse/eeg, 859.450561523, 875.164855957, 854.615356445, 889.26739502, nan, nan
1525930599.492067, /muse/eeg, 
1525930599.492045, /muse/eeg, 857.032958984, 870.73260498, 854.212463379, 858.241760254, nan, nan
1525930599.492103, /muse/eeg, 
1525930599.492082, /muse/eeg, 851.391967773, 875.164855957, 853.809509277, 844.542114258, nan, nan
1525930599.492138, /muse/eeg, 
1525930599.492117, /muse/eeg, 865.494506836, 882.820495605, 851.79486084, 880.0, nan, nan
1525930599.492181, /muse/eeg, 
1525930599.492162, /muse/eeg, 872.747253418, 880.805847168, 849.377319336, 888.864440918, nan, nan
1525930599.492211, /muse/eeg, 
1525930599.492193, /muse/eeg, 865.897460938, 879.597045898, 853.003662109, 855.018310547, nan, nan
1525930599.492242, /muse/eeg, 
1525930599.492223, /muse/eeg, 860.659362793, 884.835144043, 849.377319336, 843.73626709, nan, nan
1525930599.492261, /muse/eeg, 
1525930599.492266, /muse/eeg, 
1525930599.492271, /muse/eeg, 
1525930599.492280, /muse/acc, -0.328247070312, 0.112731933594, 0.910217285156
1525930599.492292, /muse/acc, -0.330993652344, 0.114501953125, 0.90771484375
1525930599.492300, /muse/acc, -0.32958984375, 0.116271972656, 0.907348632812
1525930599.555196, /muse/eeg, 
1525930599.555180, /muse/eeg, 864.285705566, 884.835144043, 847.765563965, 871.135559082, nan, nan
1525930599.555214, /muse/eeg, 
1525930599.555208, /muse/eeg, 864.688659668, 883.223449707, 849.780212402, 890.073242188, nan, nan
1525930599.555222, /muse/eeg, 
1525930599.555217, /muse/eeg, 855.421264648, 874.358947754, 851.79486084, 864.688659668, nan, nan
1525930599.555231, /muse/eeg, 
1525930599.555225, /muse/eeg, 860.659362793, 866.300354004, 859.450561523, 857.838806152, nan, nan
1525930599.555239, /muse/eeg, 
1525930599.555234, /muse/eeg, 862.271057129, 876.776550293, 856.630065918, 874.761901855, nan, nan
1525930599.555248, /muse/eeg, 
1525930599.555242, /muse/eeg, 859.047607422, 880.0, 850.989013672, 880.805847168, nan, nan
1525930599.555256, /muse/eeg, 
1525930599.555251, /muse/eeg, 850.58605957, 882.417602539, 850.989013672, 855.824157715, nan, nan
1525930599.555269, /muse/eeg, 
1525930599.555263, /muse/eeg, 831.245422363, 881.20880127, 852.197814941, 816.739929199, nan, nan
1525930599.555283, /muse/eeg, 
1525930599.555277, /muse/eeg, 846.153869629, 878.79119873, 848.168518066, 837.692321777, nan, nan
1525930599.555292, /muse/eeg, 
1525930599.555287, /muse/eeg, 862.271057129, 888.461547852, 842.52746582, 868.315002441, nan, nan
1525930599.555301, /muse/eeg, 
1525930599.555295, /muse/eeg, 852.197814941, 888.461547852, 843.333312988, 853.809509277, nan, nan
1525930599.555752, /muse/eeg, 
1525930599.555859, /muse/eeg, 
1525930599.555861, /muse/eeg, 
1525930599.555863, /muse/eeg, 
1525930599.555864, /muse/eeg, 
1525930599.555866, /muse/eeg, 
1525930599.555868, /muse/eeg, 
1525930599.555869, /muse/eeg, 
1525930599.555870, /muse/eeg, 
1525930599.555872, /muse/eeg, 
1525930599.555873, /muse/eeg, 
1525930599.555875, /muse/eeg, 
1525930599.555876, /muse/eeg, 
1525930599.555878, /muse/eeg, 
1525930599.555879, /muse/eeg, 
1525930599.555881, /muse/eeg, 
1525930599.555882, /muse/eeg, 
1525930599.555888, /muse/eeg, 
1525930599.555945, /muse/eeg, 
1525930599.555304, /muse/eeg, 847.765563965, 884.432250977, 843.333312988, 823.186828613, nan, nan
1525930599.576800, /muse/eeg, 
1525930599.576811, /muse/eeg, 
1525930599.576817, /muse/eeg, 
1525930599.576821, /muse/acc, -0.325500488281, 0.1181640625, 0.903991699219
1525930599.576827, /muse/acc, -0.33056640625, 0.11328125, 0.920288085938
1525930599.576829, /muse/acc, -0.327758789062, 0.111267089844, 0.912780761719
1525930599.597242, /muse/eeg, 
1525930599.597193, /muse/eeg, 851.79486084, 885.641052246, 838.901123047, 822.380981445, nan, nan
1525930599.597310, /muse/eeg, 
1525930599.597283, /muse/eeg, 848.168518066, 885.238098145, 838.095214844, 861.062255859, nan, nan
1525930599.597374, /muse/eeg, 
1525930599.597348, /muse/eeg, 843.333312988, 884.432250977, 838.095214844, 865.494506836, nan, nan
1525930599.597417, /muse/eeg, 
1525930599.597391, /muse/eeg, 842.930419922, 886.043945312, 837.289367676, 827.619018555, nan, nan
1525930599.597460, /muse/eeg, 
1525930599.597434, /muse/eeg, 846.959716797, 881.20880127, 838.498168945, 817.948730469, nan, nan
1525930599.597502, /muse/eeg, 
1525930599.597476, /muse/eeg, 850.183166504, 877.985351562, 840.109863281, 845.347961426, nan, nan
1525930599.597545, /muse/eeg, 
1525930599.597518, /muse/eeg, 851.391967773, 880.402954102, 841.318664551, 861.062255859, nan, nan
1525930599.597589, /muse/eeg, 
1525930599.597561, /muse/eeg, 841.721618652, 881.611694336, 839.304016113, 836.080566406, nan, nan
1525930599.597643, /muse/eeg, 
1525930599.597616, /muse/eeg, 842.124511719, 878.79119873, 840.512817383, 820.366271973, nan, nan
1525930599.597686, /muse/eeg, 
1525930599.597660, /muse/eeg, 850.989013672, 875.567749023, 846.153869629, 840.109863281, nan, nan
